File: mAb_dilution_wasatch_plastic/10% Raw+ 90% Buffer_data.csv
Wavenumber,Intensities
282.29,9031.67
290.69,8457.67
299.08,8323.67
307.46,8209.0
315.83,7926.0
324.17,7782.0
332.51,7903.33
340.82,7813.33
349.13,7827.67
357.41,7811.0
365.69,8034.67
373.94,8294.33
382.19,8236.33
390.41,8300.67
398.63,8898.0
406.82,8998.0
415.01,8648.33
423.17,8395.67
431.33,8169.67
439.46,8021.67
447.59,8119.67
455.69,7908.67
463.78,7772.0
471.86,7269.33
479.92,7418.67
487.97,7485.67
496.0,7441.67
504.02,7150.0
512.02,6977.33
520.0,6775.67
527.97,6871.33
535.93,7044.0
543.87,7064.67
551.79,7037.67
559.7,6803.67
567.6,6570.0
575.48,6499.67
583.34,6279.67
591.19,6444.33
599.02,6370.67
606.84,6427.33
614.64,7642.67
622.43,11647.0
630.2,6775.67
637.96,6135.0
645.7,5831.67
653.43,5745.67
661.14,5813.0
668.84,5644.0
676.52,5554.67
684.18,5311.33
691.83,5464.33
699.47,5691.0
707.09,5978.33
714.69,5399.67
722.28,5435.33
729.85,5673.0
737.41,6284.67
744.95,6432.67
752.48,6969.0
759.99,7382.0
767.49,7331.33
774.97,6701.33
782.43,7093.33
789.88,8715.0
797.32,9385.33
804.74,7719.67
812.14,6439.0
819.53,5726.67
826.9,5431.33
834.26,5643.0
841.6,5902.33
848.93,5722.0
856.24,5560.0
863.54,5316.33
870.82,5305.33
878.08,5198.33
885.33,5002.33
892.56,5059.67
899.78,5570.67
906.99,5285.67
914.17,5764.33
921.35,4609.0
928.5,4711.33
935.64,4539.33
942.77,4673.33
949.88,4747.0
956.98,4758.33
964.05,4784.67
971.12,5105.67
978.17,5285.0
985.2,6889.33
992.22,10610.67
999.22,36343.33
1006.21,22364.33
1013.18,7022.67
1020.13,6512.67
1027.07,11286.67
1034.0,13333.0
1040.91,7462.67
1047.8,5595.0
1054.68,5398.67
1061.54,5387.0
1068.39,5640.33
1075.22,5529.67
1082.03,5358.33
1088.83,5344.33
1095.62,5159.33
1102.39,5019.0
1109.14,4477.33
1115.88,4383.67
1122.6,4121.67
1129.31,4106.67
1136.0,3998.67
1142.68,4401.33
1149.34,5996.0
1155.99,8369.0
1162.61,6060.67
1169.23,5651.67
1175.83,6901.0
1182.41,9369.0
1188.98,8508.33
1195.53,8718.33
1202.07,8787.0
1208.59,7213.67
1215.09,5591.0
1221.58,5075.67
1228.06,4624.67
1234.52,4479.67
1240.96,4307.67
1247.39,4251.67
1253.8,4139.33
1260.2,4162.0
1266.58,3980.0
1272.94,4055.67
1279.29,4005.33
1285.63,3980.67
1291.95,4244.67
1298.25,4349.33
1304.54,4325.67
1310.81,4769.67
1317.07,4740.33
1323.31,5066.0
1329.53,5035.33
1335.75,4871.0
1341.94,4288.33
1348.12,4062.33
1354.28,3962.0
1360.43,3894.0
1366.56,4028.0
1372.68,3845.67
1378.78,3587.67
1384.87,3504.0
1390.94,3300.33
1396.99,3312.0
1403.03,3434.33
1409.06,3244.67
1415.06,2968.67
1421.06,3206.67
1427.03,3222.33
1433.0,3445.67
1438.94,3853.0
1444.87,4411.33
1450.79,4731.67
1456.69,3901.0
1462.57,3371.33
1468.44,3087.67
1474.29,3125.33
1480.13,3043.33
1485.95,3062.33
1491.76,3103.0
1497.55,3019.67
1503.32,2889.0
1509.08,2925.67
1514.83,3003.67
1520.56,2913.67
1526.27,3137.0
1531.97,2983.67
1537.65,3021.0
1543.32,3174.0
1548.97,3005.33
1554.6,3073.67
1560.22,3019.67
1565.83,3026.67
1571.42,3353.33
1576.99,3928.0
1582.55,5484.67
1588.09,4349.33
1593.62,4618.67
1599.13,6766.67
1604.62,7640.0
1610.1,4979.67
1615.57,3781.33
1621.02,3370.0
1626.45,3294.0
1631.87,3219.0
1637.27,3366.33
1642.66,3278.67
1648.03,3220.67
1653.39,3319.33
1658.73,3029.0
1664.05,3058.33
1669.36,2927.33
1674.65,2977.67
1679.93,2959.33
1685.2,2729.33
1690.44,3004.0
1695.68,2689.33
1700.89,2648.67
1706.09,2643.67
1711.28,2545.33
1716.45,2410.67
1721.6,2500.0
1726.74,2509.33
1731.86,2449.67
1736.97,2437.33
1742.06,2428.33
1747.14,2404.0
1752.2,2349.67
1757.25,2308.0
1762.28,2493.67
1767.29,2230.67
1772.29,2213.0
1777.27,2405.33
1782.24,2198.0
1787.2,2289.0
1792.13,2323.0
1797.05,2223.0
1801.96,2242.33
1806.85,2418.33
1811.73,2247.0
1816.59,2189.33
1821.43,2301.67
1826.26,2250.0
1831.07,2198.0
1835.87,2136.0
1840.65,2264.67
1845.42,2200.33
1850.17,2114.33
1854.9,2197.67
1859.62,2185.33
1864.33,2229.33
1869.01,2077.0
1873.69,2080.0
1878.35,2035.67
1882.99,2203.0
1887.61,2176.67
1892.23,2363.67
1893.38,1990.33