File: mAb_dilution_wasatch_plastic/100% Raw Sample_data.csv
Wavenumber,Intensities
282.29,4347.0
290.7,3926.0
299.09,3690.0
307.47,3478.0
315.83,3513.0
324.18,3580.0
332.51,3611.0
340.83,3566.0
349.13,3471.0
357.42,3405.0
365.69,3489.0
373.95,3702.0
382.19,4048.0
390.42,4386.0
398.63,4735.0
406.83,5039.0
415.01,4582.0
423.18,4124.0
431.33,3819.0
439.47,3679.0
447.59,3483.0
455.7,3197.0
463.79,3138.0
471.86,2862.0
479.93,2893.0
487.97,2901.0
496.0,2848.0
504.02,2798.0
512.02,2666.0
520.01,2696.0
527.98,2802.0
535.93,3201.0
543.87,3296.0
551.8,3140.0
559.71,2979.0
567.6,2924.0
575.48,2711.0
583.34,2631.0
591.19,2544.0
599.03,2543.0
606.84,2701.0
614.65,4662.0
622.43,10650.0
630.21,3603.0
637.96,2460.0
645.71,2128.0
653.43,2020.0
661.14,2038.0
668.84,1898.0
676.52,1910.0
684.19,1861.0
691.83,1875.0
699.47,2145.0
707.09,2085.0
714.69,1894.0
722.28,1963.0
729.85,2278.0
737.41,3301.0
744.95,3907.0
752.48,4604.0
759.99,5088.0
767.49,4815.0
774.97,4317.0
782.44,5043.0
789.89,7381.0
797.32,8384.0
804.74,5608.0
812.14,3960.0
819.53,2916.0
826.9,2521.0
834.26,2862.0
841.6,3330.0
848.93,2950.0
856.24,2714.0
863.54,2628.0
870.82,2548.0
878.08,2479.0
885.33,2406.0
892.57,2551.0
899.79,3013.0
906.99,3098.0
914.18,2575.0
921.35,2176.0
928.51,2043.0
935.65,2023.0
942.77,2187.0
949.88,2157.0
956.98,2282.0
964.06,2616.0
971.12,2684.0
978.17,3447.0
985.2,5627.0
992.22,11664.0
999.22,51698.0
1006.21,29885.0
1013.18,5977.0
1020.13,5073.0
1027.07,12849.0
1034.0,15677.0
1040.91,6750.0
1047.8,4100.0
1054.68,3512.0
1061.54,3637.0
1068.39,4048.0
1075.22,3873.0
1082.04,3550.0
1088.84,3482.0
1095.62,3471.0
1102.39,3129.0
1109.15,2392.0
1115.88,2031.0
1122.61,1677.0
1129.31,1593.0
1136.01,1762.0
1142.68,2411.0
1149.34,4655.0
1155.99,7985.0
1162.62,4807.0
1169.23,4169.0
1175.83,6287.0
1182.41,10301.0
1188.98,8732.0
1195.53,9462.0
1202.07,9275.0
1208.59,6645.0
1215.1,4382.0
1221.59,3354.0
1228.06,2939.0
1234.52,2419.0
1240.96,2248.0
1247.39,2206.0
1253.8,2107.0
1260.2,2005.0
1266.58,1908.0
1272.95,1970.0
1279.3,2007.0
1285.63,2020.0
1291.95,2236.0
1298.25,2498.0
1304.54,2662.0
1310.81,2836.0
1317.07,3220.0
1323.31,3662.0
1329.54,3651.0
1335.75,3227.0
1341.94,2563.0
1348.12,2244.0
1354.29,2100.0
1360.43,2046.0
1366.57,2012.0
1372.68,1902.0
1378.78,1652.0
1384.87,1272.0
1390.94,1132.0
1397.0,1060.0
1403.04,1029.0
1409.06,988.0
1415.07,949.0
1421.06,976.0
1427.04,991.0
1433.0,1375.0
1438.94,2160.0
1444.88,3066.0
1450.79,3611.0
1456.69,2456.0
1462.57,1306.0
1468.44,1024.0
1474.3,919.0
1480.13,912.0
1485.95,816.0
1491.76,984.0
1497.55,896.0
1503.33,779.0
1509.09,721.0
1514.83,756.0
1520.56,752.0
1526.27,765.0
1531.97,759.0
1537.65,782.0
1543.32,794.0
1548.97,854.0
1554.61,896.0
1560.22,912.0
1565.83,1028.0
1571.42,1291.0
1576.99,2194.0
1582.55,4668.0
1588.09,3336.0
1593.62,3329.0
1599.13,7104.0
1604.63,8501.0
1610.11,3903.0
1615.57,1929.0
1621.02,1405.0
1626.45,1167.0
1631.87,1017.0
1637.27,964.0
1642.66,915.0
1648.03,878.0
1653.39,858.0
1658.73,831.0
1664.05,782.0
1669.36,741.0
1674.66,763.0
1679.94,744.0
1685.2,634.0
1690.45,676.0
1695.68,577.0
1700.89,569.0
1706.1,509.0
1711.28,494.0
1716.45,425.0
1721.6,498.0
1726.74,459.0
1731.87,406.0
1736.97,406.0
1742.07,387.0
1747.14,452.0
1752.2,406.0
1757.25,372.0
1762.28,353.0
1767.29,379.0
1772.29,353.0
1777.28,296.0
1782.25,330.0
1787.2,340.0
1792.14,321.0
1797.06,363.0
1801.96,292.0
1806.85,337.0
1811.73,311.0
1816.59,322.0
1821.43,311.0
1826.26,323.0
1831.07,315.0
1835.87,281.0
1840.65,296.0
1845.42,254.0
1850.17,304.0
1854.9,308.0
1859.62,285.0
1864.33,266.0
1869.02,247.0
1873.69,228.0
1878.35,250.0
1882.99,243.0
1887.62,239.0
1892.23,269.0
1893.38,224.0