File: mAb_dilution_wasatch_plastic/15% Raw+ 85% Buffer_data.csv
Wavenumber,Intensities
282.29,8242.33
290.69,7717.0
299.08,7554.0
307.46,7466.67
315.83,7163.0
324.17,7097.0
332.51,7247.67
340.82,7173.33
349.13,7149.0
357.41,7095.67
365.69,7281.0
373.94,7609.67
382.19,7551.67
390.41,7602.67
398.63,8259.67
406.82,8381.67
415.01,7980.67
423.17,7651.33
431.33,7470.67
439.46,7306.0
447.59,7425.0
455.69,7182.0
463.78,7036.67
471.86,6544.67
479.92,6711.33
487.97,6802.67
496.0,6762.0
504.02,6438.0
512.02,6373.0
520.0,6125.0
527.97,6236.33
535.93,6436.67
543.87,6428.0
551.79,6398.33
559.7,6159.0
567.6,5925.0
575.48,5898.67
583.34,5660.67
591.19,5854.67
599.02,5813.67
606.84,5886.0
614.64,7147.67
622.43,11404.33
630.2,6276.0
637.96,5584.67
645.7,5234.33
653.43,5208.67
661.14,5273.67
668.84,5051.0
676.52,4977.33
684.18,4785.0
691.83,4925.33
699.47,5197.33
707.09,5475.0
714.69,4899.67
722.28,4928.0
729.85,5207.33
737.41,5795.0
744.95,6026.33
752.48,6605.0
759.99,6998.33
767.49,6970.33
774.97,6327.67
782.43,6670.67
789.88,8534.67
797.32,9143.67
804.74,7426.33
812.14,6107.33
819.53,5391.0
826.9,5064.67
834.26,5300.0
841.6,5515.0
848.93,5354.33
856.24,5238.0
863.54,4983.67
870.82,4966.0
878.08,4868.67
885.33,4699.67
892.56,4755.67
899.78,5292.0
906.99,5030.33
914.17,5447.0
921.35,4314.0
928.5,4387.67
935.64,4244.33
942.77,4397.33
949.88,4453.0
956.98,4488.67
964.05,4532.0
971.12,4862.67
978.17,5049.33
985.2,6790.0
992.22,10716.67
999.22,38034.0
1006.21,22953.0
1013.18,6858.0
1020.13,6375.67
1027.07,11415.33
1034.0,13579.33
1040.91,7343.67
1047.8,5468.33
1054.68,5236.67
1061.54,5229.0
1068.39,5516.33
1075.22,5420.0
1082.03,5236.67
1088.83,5232.33
1095.62,5051.0
1102.39,4849.33
1109.14,4292.33
1115.88,4199.0
1122.6,3884.0
1129.31,3889.67
1136.0,3797.67
1142.68,4224.0
1149.34,5942.67
1155.99,8375.33
1162.61,6010.0
1169.23,5515.0
1175.83,6950.33
1182.41,9542.33
1188.98,8573.0
1195.53,8826.0
1202.07,8888.0
1208.59,7195.67
1215.09,5553.33
1221.58,4959.67
1228.06,4534.33
1234.52,4358.33
1240.96,4152.0
1247.39,4119.33
1253.8,4007.0
1260.2,4000.33
1266.58,3837.0
1272.94,3920.0
1279.29,3848.33
1285.63,3808.33
1291.95,4130.67
1298.25,4210.33
1304.54,4223.0
1310.81,4669.33
1317.07,4626.67
1323.31,5038.0
1329.53,4985.33
1335.75,4816.33
1341.94,4188.67
1348.12,3947.0
1354.28,3821.67
1360.43,3768.33
1366.56,3953.33
1372.68,3728.67
1378.78,3468.33
1384.87,3400.67
1390.94,3166.67
1396.99,3215.33
1403.03,3297.67
1409.06,3112.0
1415.06,2862.33
1421.06,3070.0
1427.03,3096.33
1433.0,3325.67
1438.94,3774.67
1444.87,4363.67
1450.79,4787.33
1456.69,3906.33
1462.57,3252.33
1468.44,2981.0
1474.29,3000.33
1480.13,2904.33
1485.95,2947.0
1491.76,3012.67
1497.55,2904.0
1503.32,2775.0
1509.08,2789.0
1514.83,2861.33
1520.56,2784.0
1526.27,3003.0
1531.97,2893.33
1537.65,2895.33
1543.32,3044.0
1548.97,2901.67
1554.6,2995.33
1560.22,2932.0
1565.83,2925.67
1571.42,3256.0
1576.99,3877.33
1582.55,5533.0
1588.09,4358.33
1593.62,4577.33
1599.13,6858.33
1604.62,7897.0
1610.1,4997.67
1615.57,3669.67
1621.02,3245.67
1626.45,3145.0
1631.87,3090.0
1637.27,3195.0
1642.66,3143.33
1648.03,3046.67
1653.39,3139.67
1658.73,2891.67
1664.05,2906.67
1669.36,2808.67
1674.65,2886.67
1679.93,2801.67
1685.2,2607.67
1690.44,2910.67
1695.68,2594.0
1700.89,2554.67
1706.09,2575.0
1711.28,2453.67
1716.45,2338.33
1721.6,2423.33
1726.74,2459.67
1731.86,2375.0
1736.97,2372.67
1742.06,2348.67
1747.14,2330.67
1752.2,2297.0
1757.25,2246.0
1762.28,2446.33
1767.29,2183.0
1772.29,2164.67
1777.27,2372.67
1782.24,2146.0
1787.2,2276.33
1792.13,2261.33
1797.05,2175.33
1801.96,2213.0
1806.85,2389.0
1811.73,2200.33
1816.59,2160.0
1821.43,2242.0
1826.26,2234.33
1831.07,2140.67
1835.87,2104.33
1840.65,2213.33
1845.42,2192.67
1850.17,2084.0
1854.9,2197.67
1859.62,2164.0
1864.33,2176.33
1869.01,2055.0
1873.69,2044.67
1878.35,2000.67
1882.99,2159.0
1887.61,2149.0
1892.23,2313.0
1893.38,1981.33