File: mAb_dilution_wasatch_plastic/20% Raw+ 80% Buffer_data.csv
Wavenumber,Intensities
282.29,7618.33
290.69,7026.67
299.08,6944.0
307.46,6865.33
315.83,6592.33
324.17,6506.0
332.51,6626.33
340.82,6506.0
349.13,6505.0
357.41,6444.0
365.69,6716.33
373.94,6935.33
382.19,6918.67
390.41,6969.0
398.63,7622.33
406.82,7722.33
415.01,7361.67
423.17,7065.67
431.33,6839.0
439.46,6689.67
447.59,6761.67
455.69,6544.33
463.78,6436.33
471.86,5973.0
479.92,6088.33
487.97,6234.0
496.0,6185.67
504.02,5854.33
512.02,5778.33
520.0,5551.0
527.97,5648.0
535.93,5871.67
543.87,5859.33
551.79,5852.67
559.7,5634.0
567.6,5404.67
575.48,5321.33
583.34,5149.33
591.19,5325.0
599.02,5285.33
606.84,5361.67
614.64,6584.33
622.43,10818.0
630.2,5784.67
637.96,5083.33
645.7,4714.0
653.43,4663.33
661.14,4815.33
668.84,4616.67
676.52,4529.33
684.18,4313.0
691.83,4447.0
699.47,4752.0
707.09,4992.33
714.69,4397.67
722.28,4430.33
729.85,4746.67
737.41,5386.0
744.95,5562.0
752.48,6069.67
759.99,6469.67
767.49,6492.0
774.97,5836.67
782.43,6198.67
789.88,8022.33
797.32,8628.67
804.74,6944.0
812.14,5639.0
819.53,4938.0
826.9,4628.0
834.26,4838.33
841.6,5088.67
848.93,4939.33
856.24,4781.0
863.54,4543.33
870.82,4530.33
878.08,4453.33
885.33,4301.67
892.56,4363.33
899.78,4917.67
906.99,4615.0
914.17,5069.67
921.35,3945.33
928.5,4037.0
935.64,3877.0
942.77,4025.33
949.88,4134.0
956.98,4139.33
964.05,4188.67
971.12,4484.67
978.17,4640.67
985.2,6349.0
992.22,10286.33
999.22,37056.67
1006.21,22330.33
1013.18,6501.0
1020.13,5964.67
1027.07,10923.33
1034.0,13124.0
1040.91,7009.67
1047.8,5123.67
1054.68,4878.33
1061.54,4889.67
1068.39,5145.33
1075.22,5037.33
1082.03,4907.33
1088.83,4874.67
1095.62,4697.33
1102.39,4540.67
1109.14,4012.67
1115.88,3868.67
1122.6,3596.67
1129.31,3561.0
1136.0,3503.67
1142.68,3918.0
1149.34,5635.33
1155.99,8059.0
1162.61,5668.33
1169.23,5197.33
1175.83,6593.67
1182.41,9137.33
1188.98,8172.67
1195.53,8449.0
1202.07,8513.33
1208.59,6883.33
1215.09,5202.33
1221.58,4655.67
1228.06,4224.0
1234.52,4091.33
1240.96,3897.67
1247.39,3818.0
1253.8,3725.33
1260.2,3704.0
1266.58,3571.0
1272.94,3620.67
1279.29,3572.33
1285.63,3582.33
1291.95,3868.67
1298.25,3952.0
1304.54,3917.67
1310.81,4415.33
1317.07,4375.0
1323.31,4771.33
1329.53,4708.67
1335.75,4549.33
1341.94,3939.33
1348.12,3702.67
1354.28,3585.0
1360.43,3525.33
1366.56,3718.0
1372.68,3486.0
1378.78,3227.67
1384.87,3116.67
1390.94,2920.67
1396.99,3000.33
1403.03,3096.67
1409.06,2880.33
1415.06,2617.33
1421.06,2870.67
1427.03,2871.33
1433.0,3123.33
1438.94,3568.67
1444.87,4110.33
1450.79,4511.67
1456.69,3654.33
1462.57,3064.67
1468.44,2794.0
1474.29,2818.0
1480.13,2743.33
1485.95,2734.33
1491.76,2831.0
1497.55,2715.67
1503.32,2575.0
1509.08,2585.33
1514.83,2669.0
1520.56,2622.0
1526.27,2820.33
1531.97,2716.33
1537.65,2720.67
1543.32,2878.67
1548.97,2704.0
1554.6,2813.0
1560.22,2766.0
1565.83,2747.0
1571.42,3086.33
1576.99,3706.67
1582.55,5319.0
1588.09,4147.0
1593.62,4400.0
1599.13,6697.33
1604.62,7660.33
1610.1,4796.0
1615.57,3534.33
1621.02,3099.33
1626.45,3004.0
1631.87,2933.33
1637.27,3047.33
1642.66,2983.67
1648.03,2902.67
1653.39,2998.0
1658.73,2749.33
1664.05,2787.0
1669.36,2645.67
1674.65,2734.67
1679.93,2668.67
1685.2,2471.0
1690.44,2763.33
1695.68,2434.33
1700.89,2448.33
1706.09,2435.67
1711.28,2367.67
1716.45,2208.33
1721.6,2332.0
1726.74,2351.0
1731.86,2266.33
1736.97,2252.33
1742.06,2260.0
1747.14,2231.0
1752.2,2194.0
1757.25,2150.33
1762.28,2347.33
1767.29,2074.0
1772.29,2067.67
1777.27,2291.67
1782.24,2073.67
1787.2,2171.67
1792.13,2183.0
1797.05,2091.67
1801.96,2131.0
1806.85,2308.0
1811.73,2132.0
1816.59,2082.67
1821.43,2172.67
1826.26,2138.33
1831.07,2081.33
1835.87,2014.33
1840.65,2132.0
1845.42,2132.0
1850.17,2011.67
1854.9,2134.67
1859.62,2092.0
1864.33,2114.67
1869.01,1986.67
1873.69,1984.0
1878.35,1917.0
1882.99,2104.33
1887.61,2105.67
1892.23,2275.0
1893.38,1904.33