File: mAb_dilution_wasatch_plastic/25% Raw+75% Buffer_data.csv
Wavenumber,Intensities
282.29,7398.33
290.69,6813.67
299.08,6809.67
307.46,6673.0
315.83,6385.67
324.17,6328.0
332.51,6466.67
340.82,6403.0
349.13,6372.0
357.41,6317.33
365.69,6482.0
373.94,6821.33
382.19,6759.67
390.41,6796.0
398.63,7456.67
406.82,7563.0
415.01,7222.67
423.17,6907.33
431.33,6654.33
439.46,6540.33
447.59,6607.33
455.69,6404.67
463.78,6260.67
471.86,5816.33
479.92,5973.33
487.97,6041.67
496.0,6060.33
504.02,5725.33
512.02,5681.0
520.0,5414.0
527.97,5507.33
535.93,5752.0
543.87,5749.33
551.79,5702.33
559.7,5471.33
567.6,5259.67
575.48,5226.33
583.34,5040.0
591.19,5193.67
599.02,5159.0
606.84,5276.0
614.64,6561.0
622.43,10819.33
630.2,5678.33
637.96,4973.33
645.7,4612.67
653.43,4589.67
661.14,4677.0
668.84,4504.0
676.52,4433.0
684.18,4226.67
691.83,4349.67
699.47,4647.33
707.09,4903.67
714.69,4349.33
722.28,4387.67
729.85,4656.0
737.41,5259.67
744.95,5492.33
752.48,6039.33
759.99,6441.67
767.49,6468.33
774.97,5800.0
782.43,6200.0
789.88,7988.0
797.32,8586.0
804.74,6907.33
812.14,5602.33
819.53,4924.0
826.9,4578.67
834.26,4803.0
841.6,5107.33
848.93,4898.67
856.24,4748.67
863.54,4528.0
870.82,4542.0
878.08,4420.33
885.33,4264.33
892.56,4335.33
899.78,4912.67
906.99,4607.33
914.17,5081.0
921.35,3978.33
928.5,4022.33
935.64,3853.67
942.77,3990.0
949.88,4112.67
956.98,4108.33
964.05,4133.67
971.12,4508.67
978.17,4640.33
985.2,6360.33
992.22,10267.33
999.22,37412.67
1006.21,22390.67
1013.18,6527.67
1020.13,6026.33
1027.07,11040.33
1034.0,13185.33
1040.91,7008.67
1047.8,5131.67
1054.68,4921.67
1061.54,4920.0
1068.39,5174.33
1075.22,5068.33
1082.03,4910.33
1088.83,4870.67
1095.62,4718.67
1102.39,4561.0
1109.14,4005.33
1115.88,3885.67
1122.6,3619.0
1129.31,3586.33
1136.0,3509.0
1142.68,3938.33
1149.34,5597.33
1155.99,8044.0
1162.61,5659.67
1169.23,5221.0
1175.83,6622.0
1182.41,9269.0
1188.98,8305.67
1195.53,8512.33
1202.07,8584.0
1208.59,6902.0
1215.09,5246.67
1221.58,4672.67
1228.06,4278.67
1234.52,4062.33
1240.96,3886.33
1247.39,3837.0
1253.8,3744.33
1260.2,3737.0
1266.58,3569.0
1272.94,3668.33
1279.29,3599.67
1285.63,3594.0
1291.95,3889.0
1298.25,3988.67
1304.54,3957.0
1310.81,4429.0
1317.07,4411.67
1323.31,4806.33
1329.53,4744.33
1335.75,4577.0
1341.94,3970.0
1348.12,3716.67
1354.28,3614.33
1360.43,3552.33
1366.56,3735.67
1372.68,3510.0
1378.78,3257.33
1384.87,3138.67
1390.94,2957.0
1396.99,2989.0
1403.03,3099.0
1409.06,2898.0
1415.06,2618.33
1421.06,2867.33
1427.03,2880.0
1433.0,3142.0
1438.94,3568.67
1444.87,4223.33
1450.79,4556.33
1456.69,3669.67
1462.57,3066.33
1468.44,2788.33
1474.29,2834.67
1480.13,2737.0
1485.95,2765.0
1491.76,2823.33
1497.55,2718.0
1503.32,2586.33
1509.08,2603.0
1514.83,2674.0
1520.56,2632.33
1526.27,2830.0
1531.97,2706.33
1537.65,2727.0
1543.32,2889.0
1548.97,2738.33
1554.6,2801.33
1560.22,2761.0
1565.83,2753.33
1571.42,3067.33
1576.99,3729.33
1582.55,5401.0
1588.09,4198.67
1593.62,4439.33
1599.13,6803.33
1604.62,7753.0
1610.1,4826.67
1615.57,3488.0
1621.02,3056.0
1626.45,2970.0
1631.87,2884.0
1637.27,2997.67
1642.66,2933.0
1648.03,2872.67
1653.39,2967.33
1658.73,2716.67
1664.05,2745.33
1669.36,2624.33
1674.65,2704.0
1679.93,2660.0
1685.2,2475.0
1690.44,2754.67
1695.68,2446.0
1700.89,2424.67
1706.09,2424.67
1711.28,2346.67
1716.45,2215.0
1721.6,2296.67
1726.74,2346.0
1731.86,2273.67
1736.97,2256.0
1742.06,2247.33
1747.14,2237.33
1752.2,2189.33
1757.25,2144.67
1762.28,2363.67
1767.29,2082.67
1772.29,2098.0
1777.27,2291.67
1782.24,2057.67
1787.2,2163.67
1792.13,2224.67
1797.05,2110.67
1801.96,2143.33
1806.85,2306.67
1811.73,2131.0
1816.59,2074.0
1821.43,2178.0
1826.26,2162.0
1831.07,2078.67
1835.87,2022.0
1840.65,2156.0
1845.42,2117.0
1850.17,2021.67
1854.9,2117.33
1859.62,2104.33
1864.33,2132.33
1869.01,1981.33
1873.69,1974.0
1878.35,1951.0
1882.99,2118.33
1887.61,2097.0
1892.23,2289.0
1893.38,1929.67