File: mAb_dilution_wasatch_plastic/30% Raw+ 70% Buffer_data.csv
Wavenumber,Intensities
282.29,5686.67
290.7,5253.67
299.09,4922.0
307.47,4747.67
315.83,4694.0
324.18,4671.0
332.51,4703.0
340.83,4653.67
349.13,4605.67
357.42,4566.67
365.69,4633.33
373.95,4859.0
382.19,5067.67
390.42,5315.33
398.63,5686.67
406.83,5986.0
415.01,5588.0
423.18,5164.67
431.33,4967.67
439.47,4874.0
447.59,4746.33
455.7,4447.33
463.79,4327.33
471.86,4178.0
479.93,4137.33
487.97,4166.67
496.0,4034.67
504.02,3825.0
512.02,3776.67
520.01,3680.67
527.98,3734.0
535.93,4067.67
543.87,4062.67
551.8,3910.67
559.71,3789.33
567.6,3678.33
575.48,3518.33
583.34,3409.33
591.19,3390.67
599.03,3371.0
606.84,3470.33
614.65,5000.33
622.43,9869.0
630.21,4111.0
637.96,3213.67
645.71,2894.33
653.43,2784.33
661.14,2747.67
668.84,2703.0
676.52,2630.0
684.19,2625.0
691.83,2607.33
699.47,2824.67
707.09,2846.67
714.69,2627.33
722.28,2646.67
729.85,2858.0
737.41,3636.33
744.95,4100.33
752.48,4684.33
759.99,4985.33
767.49,4778.33
774.97,4384.33
782.44,4913.33
789.89,6733.33
797.32,7519.0
804.74,5390.0
812.14,4065.33
819.53,3191.67
826.9,2907.0
834.26,3158.0
841.6,3558.0
848.93,3200.67
856.24,2966.67
863.54,2900.67
870.82,2841.0
878.08,2741.0
885.33,2706.0
892.57,2732.33
899.79,3080.67
906.99,3190.33
914.18,2742.67
921.35,2349.0
928.51,2290.67
935.65,2269.67
942.77,2340.0
949.88,2350.0
956.98,2441.67
964.06,2689.67
971.12,2702.0
978.17,3298.0
985.2,5005.33
992.22,9703.33
999.22,40962.67
1006.21,24133.0
1013.18,5319.33
1020.13,4530.67
1027.07,10571.67
1034.0,12863.67
1040.91,5847.0
1047.8,3781.67
1054.68,3339.67
1061.54,3449.67
1068.39,3775.33
1075.22,3645.0
1082.04,3419.67
1088.84,3306.0
1095.62,3256.0
1102.39,3042.67
1109.15,2439.0
1115.88,2119.0
1122.61,1861.67
1129.31,1760.67
1136.01,1855.67
1142.68,2397.0
1149.34,4164.67
1155.99,6899.0
1162.62,4347.0
1169.23,3759.0
1175.83,5473.0
1182.41,8668.67
1188.98,7335.33
1195.53,7791.0
1202.07,7670.67
1208.59,5718.33
1215.1,3918.33
1221.59,3206.0
1228.06,2705.67
1234.52,2397.33
1240.96,2199.67
1247.39,2166.67
1253.8,2064.67
1260.2,2009.33
1266.58,1962.67
1272.95,1993.67
1279.3,1968.33
1285.63,2008.67
1291.95,2212.67
1298.25,2403.67
1304.54,2514.0
1310.81,2688.0
1317.07,2878.33
1323.31,3300.0
1329.54,3293.0
1335.75,3023.33
1341.94,2444.33
1348.12,2137.67
1354.29,1982.0
1360.43,1977.0
1366.57,1954.33
1372.68,1892.33
1378.78,1597.33
1384.87,1363.33
1390.94,1199.67
1397.0,1183.33
1403.04,1197.67
1409.06,1134.0
1415.07,1074.33
1421.06,1106.0
1427.04,1147.0
1433.0,1409.0
1438.94,2011.0
1444.88,2697.33
1450.79,3134.67
1456.69,2254.0
1462.57,1351.33
1468.44,1093.67
1474.3,1054.0
1480.13,986.67
1485.95,968.33
1491.76,1097.67
1497.55,1053.0
1503.33,948.0
1509.09,943.0
1514.83,932.67
1520.56,917.33
1526.27,936.0
1531.97,943.0
1537.65,951.67
1543.32,954.0
1548.97,983.33
1554.61,1058.0
1560.22,1052.67
1565.83,1144.33
1571.42,1339.33
1576.99,1966.67
1582.55,3833.33
1588.09,2841.0
1593.62,2887.0
1599.13,5627.0
1604.63,6758.67
1610.11,3343.67
1615.57,1854.67
1621.02,1498.67
1626.45,1350.67
1631.87,1258.33
1637.27,1172.0
1642.66,1152.0
1648.03,1105.0
1653.39,1069.67
1658.73,1052.0
1664.05,1022.67
1669.36,974.33
1674.66,939.33
1679.94,903.67
1685.2,837.67
1690.45,792.33
1695.68,744.0
1700.89,688.67
1706.1,662.0
1711.28,645.33
1716.45,611.33
1721.6,577.0
1726.74,580.0
1731.87,532.33
1736.97,532.67
1742.07,509.0
1747.14,477.33
1752.2,492.67
1757.25,474.33
1762.28,453.33
1767.29,434.0
1772.29,425.0
1777.28,438.0
1782.25,397.33
1787.2,412.67
1792.14,419.0
1797.06,405.33
1801.96,393.33
1806.85,396.0
1811.73,429.33
1816.59,390.0
1821.43,368.33
1826.26,380.0
1831.07,377.0
1835.87,344.33
1840.65,343.33
1845.42,339.0
1850.17,335.0
1854.9,353.33
1859.62,320.33
1864.33,353.0
1869.02,323.0
1873.69,331.67
1878.35,312.67
1882.99,335.67
1887.62,327.67
1892.23,371.0
1893.38,291.67