File: mAb_dilution_wasatch_plastic/35% Raw +65% Buffer_data.csv
Wavenumber,Intensities
282.29,3432.0
290.7,3162.67
299.09,2964.33
307.47,2855.33
315.83,2828.67
324.18,2882.67
332.51,2882.0
340.83,2852.67
349.13,2798.0
357.42,2757.67
365.69,2798.33
373.95,2915.0
382.19,3103.67
390.42,3328.67
398.63,3527.33
406.83,3718.67
415.01,3456.33
423.18,3177.0
431.33,3045.0
439.47,2934.0
447.59,2860.0
455.7,2666.33
463.79,2549.33
471.86,2444.0
479.93,2439.0
487.97,2445.33
496.0,2388.33
504.02,2271.0
512.02,2220.0
520.01,2185.67
527.98,2224.0
535.93,2446.33
543.87,2475.33
551.8,2371.67
559.71,2311.33
567.6,2224.67
575.48,2093.33
583.34,2030.0
591.19,2002.33
599.03,2008.67
606.84,2076.67
614.65,3207.0
622.43,6764.67
630.21,2540.33
637.96,1883.33
645.71,1691.0
653.43,1616.67
661.14,1556.67
668.84,1545.33
676.52,1525.33
684.19,1482.0
691.83,1506.0
699.47,1712.67
707.09,1635.33
714.69,1512.33
722.28,1540.33
729.85,1721.0
737.41,2252.67
744.95,2604.33
752.48,3018.67
759.99,3271.67
767.49,3135.0
774.97,2845.67
782.44,3255.33
789.89,4541.0
797.32,5152.67
804.74,3599.67
812.14,2607.0
819.53,2017.67
826.9,1750.33
834.26,1988.33
841.6,2274.33
848.93,1994.67
856.24,1824.33
863.54,1806.0
870.82,1728.0
878.08,1699.67
885.33,1707.33
892.57,1718.67
899.79,1953.67
906.99,2030.0
914.18,1702.67
921.35,1459.0
928.51,1394.33
935.65,1395.67
942.77,1442.67
949.88,1470.33
956.98,1512.33
964.06,1681.67
971.12,1782.0
978.17,2175.67
985.2,3407.0
992.22,6779.33
999.22,29480.33
1006.21,17486.0
1013.18,3641.33
1020.13,3094.33
1027.07,7470.0
1034.0,9252.67
1040.91,4045.33
1047.8,2524.67
1054.68,2248.0
1061.54,2255.33
1068.39,2512.67
1075.22,2431.33
1082.04,2249.0
1088.84,2157.67
1095.62,2186.0
1102.39,1988.33
1109.15,1550.33
1115.88,1342.33
1122.61,1117.33
1129.31,1064.33
1136.01,1161.67
1142.68,1536.33
1149.34,2833.67
1155.99,4830.67
1162.62,3000.67
1169.23,2523.67
1175.83,3770.33
1182.41,6130.67
1188.98,5172.33
1195.53,5496.67
1202.07,5420.33
1208.59,3995.67
1215.1,2617.0
1221.59,2101.67
1228.06,1804.0
1234.52,1529.33
1240.96,1427.67
1247.39,1388.33
1253.8,1316.33
1260.2,1260.67
1266.58,1252.67
1272.95,1225.0
1279.3,1268.67
1285.63,1285.67
1291.95,1413.33
1298.25,1540.0
1304.54,1660.67
1310.81,1724.67
1317.07,1960.33
1323.31,2205.67
1329.54,2233.67
1335.75,2007.0
1341.94,1614.67
1348.12,1377.33
1354.29,1284.67
1360.43,1270.33
1366.57,1264.33
1372.68,1172.0
1378.78,1008.33
1384.87,820.0
1390.94,702.33
1397.0,698.67
1403.04,698.67
1409.06,682.0
1415.07,645.33
1421.06,634.0
1427.04,663.0
1433.0,879.67
1438.94,1296.33
1444.88,1807.33
1450.79,2164.67
1456.69,1535.0
1462.57,797.33
1468.44,658.0
1474.3,595.67
1480.13,570.67
1485.95,598.33
1491.76,637.67
1497.55,614.0
1503.33,553.0
1509.09,505.0
1514.83,524.0
1520.56,542.67
1526.27,542.0
1531.97,549.33
1537.65,534.0
1543.32,548.33
1548.97,554.0
1554.61,646.33
1560.22,612.33
1565.83,683.67
1571.42,820.0
1576.99,1298.67
1582.55,2680.67
1588.09,1956.67
1593.62,1956.67
1599.13,3980.0
1604.63,4818.0
1610.11,2327.33
1615.57,1199.33
1621.02,909.0
1626.45,805.0
1631.87,742.67
1637.27,676.0
1642.66,640.33
1648.03,620.0
1653.39,624.0
1658.73,596.33
1664.05,572.33
1669.36,531.67
1674.66,558.0
1679.94,495.0
1685.2,460.67
1690.45,458.33
1695.68,392.33
1700.89,382.67
1706.1,348.0
1711.28,320.33
1716.45,335.33
1721.6,287.33
1726.74,305.0
1731.87,287.67
1736.97,259.33
1742.07,237.67
1747.14,283.33
1752.2,242.67
1757.25,213.67
1762.28,238.67
1767.29,233.0
1772.29,220.0
1777.28,222.67
1782.25,192.33
1787.2,199.67
1792.14,190.0
1797.06,184.0
1801.96,222.33
1806.85,215.33
1811.73,220.33
1816.59,202.33
1821.43,205.0
1826.26,193.67
1831.07,179.33
1835.87,186.0
1840.65,190.0
1845.42,191.33
1850.17,164.67
1854.9,169.33
1859.62,171.0
1864.33,158.0
1869.02,153.33
1873.69,152.0
1878.35,148.0
1882.99,171.0
1887.62,159.33
1892.23,150.67
1893.38,153.0