File: mAb_dilution_wasatch_plastic/40% Raw + 60% Buffer_data.csv
Wavenumber,Intensities
282.29,1759.0
290.7,1641.33
299.09,1541.67
307.47,1477.0
315.83,1439.0
324.18,1469.0
332.51,1472.0
340.83,1458.0
349.13,1436.33
357.42,1424.67
365.69,1435.33
373.95,1493.67
382.19,1559.33
390.42,1644.0
398.63,1757.67
406.83,1821.33
415.01,1751.67
423.18,1615.0
431.33,1573.0
439.47,1496.0
447.59,1497.0
455.7,1419.67
463.79,1343.0
471.86,1311.33
479.93,1322.67
487.97,1290.0
496.0,1283.67
504.02,1205.0
512.02,1208.67
520.01,1142.67
527.98,1188.33
535.93,1264.33
543.87,1285.33
551.8,1244.0
559.71,1195.0
567.6,1173.0
575.48,1103.67
583.34,1072.0
591.19,1065.67
599.03,1074.67
606.84,1095.67
614.65,1503.33
622.43,2878.0
630.21,1258.0
637.96,1001.33
645.71,929.33
653.43,897.67
661.14,867.0
668.84,850.33
676.52,831.67
684.19,839.33
691.83,828.67
699.47,883.33
707.09,879.67
714.69,845.33
722.28,838.0
729.85,892.0
737.41,1093.67
744.95,1265.67
752.48,1408.0
759.99,1528.67
767.49,1451.67
774.97,1348.0
782.44,1490.0
789.89,1997.0
797.32,2275.67
804.74,1629.0
812.14,1254.0
819.53,994.67
826.9,891.0
834.26,982.33
841.6,1074.67
848.93,984.67
856.24,922.67
863.54,890.0
870.82,862.33
878.08,869.67
885.33,817.67
892.57,835.33
899.79,939.0
906.99,955.33
914.18,845.67
921.35,729.0
928.51,693.0
935.65,708.67
942.77,703.67
949.88,689.33
956.98,740.33
964.06,791.0
971.12,835.33
978.17,973.33
985.2,1497.33
992.22,2797.0
999.22,11792.0
1006.21,7181.0
1013.18,1559.33
1020.13,1374.67
1027.07,3045.33
1034.0,3761.33
1040.91,1703.67
1047.8,1125.0
1054.68,968.33
1061.54,1014.0
1068.39,1098.67
1075.22,1074.67
1082.04,998.67
1088.84,971.67
1095.62,975.67
1102.39,907.33
1109.15,691.0
1115.88,648.0
1122.61,539.0
1129.31,535.33
1136.01,559.33
1142.68,724.0
1149.34,1192.33
1155.99,1972.0
1162.62,1255.33
1169.23,1106.0
1175.83,1570.33
1182.41,2487.0
1188.98,2123.67
1195.53,2250.33
1202.07,2277.0
1208.59,1675.67
1215.1,1120.33
1221.59,921.0
1228.06,825.33
1234.52,704.67
1240.96,660.67
1247.39,655.33
1253.8,616.33
1260.2,603.67
1266.58,599.67
1272.95,578.67
1279.3,593.0
1285.63,603.67
1291.95,654.0
1298.25,711.0
1304.54,754.0
1310.81,793.67
1317.07,835.33
1323.31,956.67
1329.54,973.33
1335.75,888.33
1341.94,717.67
1348.12,626.67
1354.29,586.0
1360.43,588.67
1366.57,588.67
1372.68,569.33
1378.78,473.33
1384.87,406.0
1390.94,357.0
1397.0,351.67
1403.04,355.67
1409.06,350.67
1415.07,320.33
1421.06,346.67
1427.04,324.0
1433.0,441.67
1438.94,577.33
1444.88,774.33
1450.79,885.0
1456.69,647.67
1462.57,387.33
1468.44,349.0
1474.3,322.33
1480.13,305.0
1485.95,311.0
1491.76,309.67
1497.55,300.0
1503.33,287.33
1509.09,258.33
1514.83,272.0
1520.56,301.0
1526.27,291.33
1531.97,310.0
1537.65,281.0
1543.32,295.0
1548.97,325.33
1554.61,330.0
1560.22,330.33
1565.83,357.0
1571.42,412.67
1576.99,602.33
1582.55,1067.0
1588.09,854.33
1593.62,820.0
1599.13,1605.67
1604.63,1938.67
1610.11,1005.0
1615.57,577.0
1621.02,480.0
1626.45,427.67
1631.87,411.0
1637.27,400.0
1642.66,368.0
1648.03,362.0
1653.39,373.0
1658.73,354.67
1664.05,333.0
1669.36,326.67
1674.66,327.67
1679.94,305.0
1685.2,253.33
1690.45,280.0
1695.68,215.33
1700.89,220.67
1706.1,207.33
1711.28,200.33
1716.45,187.0
1721.6,167.0
1726.74,189.67
1731.87,172.33
1736.97,147.0
1742.07,133.67
1747.14,176.33
1752.2,135.33
1757.25,124.0
1762.28,162.67
1767.29,140.33
1772.29,119.0
1777.28,145.67
1782.25,102.67
1787.2,106.33
1792.14,120.0
1797.06,105.33
1801.96,135.33
1806.85,119.0
1811.73,137.0
1816.59,133.0
1821.43,120.33
1826.26,109.0
1831.07,112.33
1835.87,113.67
1840.65,121.67
1845.42,118.0
1850.17,94.67
1854.9,105.0
1859.62,102.0
1864.33,113.67
1869.02,97.67
1873.69,96.0
1878.35,88.67
1882.99,120.33
1887.62,120.33
1892.23,105.0
1893.38,87.33