File: mAb_dilution_wasatch_plastic/45% Raw + 55% Buffer_data.csv
Wavenumber,Intensities
282.29,6745.67
290.7,6241.0
299.09,5866.33
307.47,5659.0
315.83,5604.0
324.18,5639.33
332.51,5615.67
340.83,5584.67
349.13,5493.67
357.42,5475.0
365.69,5561.33
373.95,5702.0
382.19,6003.0
390.42,6282.67
398.63,6586.33
406.83,7023.0
415.01,6563.0
423.18,6172.67
431.33,5886.67
439.47,5782.33
447.59,5583.67
455.7,5347.0
463.79,5161.67
471.86,5021.67
479.93,4948.67
487.97,4943.67
496.0,4826.0
504.02,4614.67
512.02,4538.67
520.01,4474.0
527.98,4536.33
535.93,4852.0
543.87,4939.0
551.8,4743.67
559.71,4650.0
567.6,4453.0
575.48,4292.0
583.34,4166.0
591.19,4080.33
599.03,4054.0
606.84,4204.0
614.65,5936.0
622.43,11114.67
630.21,4842.33
637.96,3821.33
645.71,3557.67
653.43,3432.67
661.14,3359.0
668.84,3303.0
676.52,3232.33
684.19,3236.67
691.83,3227.67
699.47,3472.0
707.09,3430.0
714.69,3207.0
722.28,3177.0
729.85,3479.33
737.41,4286.67
744.95,4876.33
752.48,5499.0
759.99,5857.33
767.49,5579.0
774.97,5156.33
782.44,5724.67
789.89,7725.0
797.32,8684.67
804.74,6238.33
812.14,4826.67
819.53,3823.33
826.9,3464.33
834.26,3799.67
841.6,4198.0
848.93,3794.33
856.24,3528.33
863.54,3463.0
870.82,3402.33
878.08,3279.33
885.33,3225.0
892.57,3256.67
899.79,3609.0
906.99,3711.67
914.18,3232.33
921.35,2836.0
928.51,2705.67
935.65,2761.33
942.77,2808.67
949.88,2810.67
956.98,2896.67
964.06,3160.33
971.12,3203.33
978.17,3847.67
985.2,5752.0
992.22,10951.67
999.22,45739.67
1006.21,26362.67
1013.18,5999.33
1020.13,5232.0
1027.07,11928.67
1034.0,14330.67
1040.91,6620.67
1047.8,4331.0
1054.68,3862.67
1061.54,3924.33
1068.39,4302.33
1075.22,4193.33
1082.04,3923.33
1088.84,3737.0
1095.62,3802.0
1102.39,3503.33
1109.15,2821.33
1115.88,2510.67
1122.61,2173.0
1129.31,2107.33
1136.01,2198.67
1142.68,2811.0
1149.34,4789.0
1155.99,7711.67
1162.62,4934.33
1169.23,4287.67
1175.83,6242.33
1182.41,9703.67
1188.98,8169.67
1195.53,8733.0
1202.07,8621.33
1208.59,6415.33
1215.1,4392.67
1221.59,3595.33
1228.06,3147.67
1234.52,2730.67
1240.96,2592.0
1247.39,2504.67
1253.8,2416.33
1260.2,2344.0
1266.58,2312.33
1272.95,2278.33
1279.3,2334.33
1285.63,2366.33
1291.95,2572.67
1298.25,2775.33
1304.54,2908.33
1310.81,3035.0
1317.07,3360.33
1323.31,3724.67
1329.54,3785.67
1335.75,3417.0
1341.94,2809.67
1348.12,2449.33
1354.29,2300.67
1360.43,2279.33
1366.57,2212.33
1372.68,2130.0
1378.78,1874.33
1384.87,1550.33
1390.94,1432.67
1397.0,1413.33
1403.04,1360.67
1409.06,1346.33
1415.07,1316.33
1421.06,1296.0
1427.04,1322.67
1433.0,1657.0
1438.94,2296.33
1444.88,3102.0
1450.79,3537.67
1456.69,2590.67
1462.57,1530.33
1468.44,1303.33
1474.3,1207.0
1480.13,1153.0
1485.95,1163.0
1491.76,1271.67
1497.55,1241.67
1503.33,1103.33
1509.09,1069.33
1514.83,1091.0
1520.56,1068.33
1526.27,1072.0
1531.97,1082.0
1537.65,1102.33
1543.32,1093.33
1548.97,1152.67
1554.61,1229.67
1560.22,1198.0
1565.83,1306.33
1571.42,1545.0
1576.99,2266.67
1582.55,4288.0
1588.09,3199.33
1593.62,3243.33
1599.13,6315.0
1604.63,7557.0
1610.11,3751.33
1615.57,2111.0
1621.02,1719.0
1626.45,1591.0
1631.87,1492.33
1637.27,1403.67
1642.66,1327.67
1648.03,1287.0
1653.39,1269.33
1658.73,1222.33
1664.05,1164.67
1669.36,1152.67
1674.66,1111.0
1679.94,1053.33
1685.2,968.67
1690.45,954.67
1695.68,834.33
1700.89,801.67
1706.1,716.0
1711.28,677.67
1716.45,678.33
1721.6,611.67
1726.74,619.0
1731.87,574.67
1736.97,563.33
1742.07,508.33
1747.14,537.0
1752.2,489.67
1757.25,455.33
1762.28,479.33
1767.29,468.33
1772.29,444.33
1777.28,463.33
1782.25,424.33
1787.2,425.0
1792.14,417.67
1797.06,391.67
1801.96,415.0
1806.85,409.33
1811.73,419.0
1816.59,382.33
1821.43,368.33
1826.26,378.33
1831.07,349.0
1835.87,342.67
1840.65,354.33
1845.42,335.67
1850.17,327.0
1854.9,306.33
1859.62,334.0
1864.33,344.33
1869.02,301.33
1873.69,319.0
1878.35,302.33
1882.99,319.0
1887.62,313.67
1892.23,311.33
1893.38,301.0