File: mAb_dilution_wasatch_plastic/5% Raw+95% Buffer_data.csv
Wavenumber,Intensities
282.29,8651.67
290.69,8113.67
299.08,8003.67
307.46,7881.67
315.83,7559.0
324.17,7508.33
332.51,7612.33
340.82,7552.67
349.13,7520.0
357.41,7538.67
365.69,7754.0
373.94,7989.33
382.19,7847.67
390.41,7897.0
398.63,8432.33
406.82,8498.33
415.01,8272.33
423.17,8033.67
431.33,7874.0
439.46,7756.33
447.59,7841.33
455.69,7641.33
463.78,7522.67
471.86,7050.33
479.92,7245.33
487.97,7300.0
496.0,7270.67
504.02,6913.0
512.02,6782.0
520.0,6540.33
527.97,6612.33
535.93,6809.67
543.87,6753.0
551.79,6731.33
559.7,6540.0
567.6,6288.67
575.48,6256.67
583.34,6061.0
591.19,6208.67
599.02,6221.0
606.84,6239.0
614.64,7146.33
622.43,10349.67
630.2,6439.33
637.96,5921.33
645.7,5633.0
653.43,5587.33
661.14,5743.0
668.84,5497.33
676.52,5465.67
684.18,5198.0
691.83,5329.0
699.47,5574.67
707.09,5816.33
714.69,5311.67
722.28,5278.67
729.85,5460.33
737.41,5945.67
744.95,6041.33
752.48,6414.67
759.99,6789.67
767.49,6832.67
774.97,6250.67
782.43,6506.33
789.88,7937.67
797.32,8393.0
804.74,7111.0
812.14,6036.67
819.53,5492.33
826.9,5242.67
834.26,5379.67
841.6,5554.0
848.93,5431.67
856.24,5301.33
863.54,5081.0
870.82,5043.33
878.08,4930.33
885.33,4772.33
892.56,4821.33
899.78,5303.67
906.99,4984.67
914.17,5498.67
921.35,4415.33
928.5,4509.0
935.64,4338.33
942.77,4482.33
949.88,4568.33
956.98,4545.67
964.05,4538.33
971.12,4833.0
978.17,4871.0
985.2,6314.0
992.22,9263.67
999.22,29899.67
1006.21,18751.33
1013.18,6279.33
1020.13,5883.33
1027.07,9638.67
1034.0,11361.0
1040.91,6639.0
1047.8,5136.67
1054.68,5012.33
1061.54,4987.33
1068.39,5191.33
1075.22,5057.0
1082.03,4992.0
1088.83,4968.33
1095.62,4805.0
1102.39,4674.67
1109.14,4272.33
1115.88,4178.67
1122.6,3961.0
1129.31,3939.33
1136.0,3848.33
1142.68,4158.33
1149.34,5472.0
1155.99,7339.0
1162.61,5512.67
1169.23,5146.67
1175.83,6199.67
1182.41,8129.67
1188.98,7450.33
1195.53,7617.0
1202.07,7693.33
1208.59,6389.67
1215.09,5123.0
1221.58,4725.33
1228.06,4390.0
1234.52,4248.0
1240.96,4074.0
1247.39,4049.33
1253.8,3939.67
1260.2,3970.67
1266.58,3798.67
1272.94,3897.67
1279.29,3776.0
1285.63,3768.67
1291.95,4040.67
1298.25,4067.0
1304.54,4055.67
1310.81,4450.0
1317.07,4358.33
1323.31,4695.0
1329.53,4605.33
1335.75,4523.0
1341.94,4024.33
1348.12,3862.0
1354.28,3741.67
1360.43,3681.0
1366.56,3863.67
1372.68,3657.0
1378.78,3454.67
1384.87,3408.67
1390.94,3223.0
1396.99,3264.67
1403.03,3375.0
1409.06,3158.33
1415.06,2910.67
1421.06,3129.67
1427.03,3132.0
1433.0,3315.0
1438.94,3636.67
1444.87,4063.33
1450.79,4316.67
1456.69,3668.33
1462.57,3228.33
1468.44,3026.0
1474.29,3073.33
1480.13,2992.67
1485.95,3003.0
1491.76,3054.67
1497.55,2927.67
1503.32,2829.67
1509.08,2867.67
1514.83,2918.33
1520.56,2861.0
1526.27,3045.67
1531.97,2949.33
1537.65,2961.0
1543.32,3103.0
1548.97,2951.0
1554.6,3027.0
1560.22,2971.33
1565.83,2957.0
1571.42,3219.33
1576.99,3730.67
1582.55,4939.0
1588.09,3992.67
1593.62,4248.33
1599.13,5870.67
1604.62,6636.33
1610.1,4552.0
1615.57,3601.67
1621.02,3267.33
1626.45,3214.0
1631.87,3179.0
1637.27,3324.33
1642.66,3244.67
1648.03,3158.33
1653.39,3284.0
1658.73,3001.33
1664.05,3028.33
1669.36,2857.0
1674.65,2938.33
1679.93,2881.0
1685.2,2681.33
1690.44,2963.33
1695.68,2647.33
1700.89,2627.0
1706.09,2596.0
1711.28,2540.67
1716.45,2397.0
1721.6,2477.67
1726.74,2481.33
1731.86,2426.0
1736.97,2403.0
1742.06,2401.67
1747.14,2352.0
1752.2,2337.33
1757.25,2287.67
1762.28,2477.67
1767.29,2206.67
1772.29,2194.33
1777.27,2399.33
1782.24,2185.33
1787.2,2253.33
1792.13,2290.33
1797.05,2190.33
1801.96,2222.0
1806.85,2396.67
1811.73,2210.67
1816.59,2171.33
1821.43,2261.33
1826.26,2242.0
1831.07,2172.67
1835.87,2120.67
1840.65,2234.33
1845.42,2209.33
1850.17,2100.33
1854.9,2209.33
1859.62,2171.33
1864.33,2209.0
1869.01,2080.33
1873.69,2067.33
1878.35,2017.0
1882.99,2192.67
1887.61,2168.67
1892.23,2350.0
1893.38,1996.67