File: mAb_dilution_wasatch_plastic/50% Raw + 50% Buffer_data.csv
Wavenumber,Intensities
282.29,6571.0
290.7,6096.67
299.09,5652.33
307.47,5416.0
315.83,5377.67
324.18,5420.33
332.51,5447.33
340.83,5380.33
349.13,5311.33
357.42,5271.33
365.69,5272.67
373.95,5542.67
382.19,5822.0
390.42,6188.67
398.63,6527.0
406.83,6925.33
415.01,6417.67
423.18,5991.33
431.33,5722.0
439.47,5557.67
447.59,5363.33
455.7,5088.67
463.79,4867.67
471.86,4739.67
479.93,4676.67
487.97,4656.33
496.0,4533.67
504.02,4366.67
512.02,4304.33
520.01,4248.67
527.98,4319.67
535.93,4700.33
543.87,4777.33
551.8,4494.33
559.71,4406.0
567.6,4279.67
575.48,4089.33
583.34,3968.67
591.19,3879.0
599.03,3848.67
606.84,4000.33
614.65,5981.33
622.43,11779.33
630.21,4787.67
637.96,3641.33
645.71,3309.67
653.43,3192.33
661.14,3117.33
668.84,3089.33
676.52,2990.67
684.19,2974.33
691.83,3017.33
699.47,3244.33
707.09,3215.0
714.69,3018.67
722.28,2980.67
729.85,3313.0
737.41,4256.67
744.95,4833.33
752.48,5523.0
759.99,6028.33
767.49,5676.33
774.97,5193.0
782.44,5889.67
789.89,8079.33
797.32,9141.67
804.74,6435.67
812.14,4835.67
819.53,3731.0
826.9,3365.0
834.26,3746.67
841.6,4165.33
848.93,3708.33
856.24,3483.0
863.54,3396.0
870.82,3296.0
878.08,3209.67
885.33,3123.67
892.57,3183.33
899.79,3603.0
906.99,3742.0
914.18,3147.67
921.35,2752.67
928.51,2654.0
935.65,2643.67
942.77,2729.0
949.88,2723.33
956.98,2795.67
964.06,3078.0
971.12,3198.0
978.17,3941.0
985.2,6129.67
992.22,11924.0
999.22,51123.67
1006.21,29319.33
1013.18,6348.67
1020.13,5493.0
1027.07,13106.67
1034.0,15716.33
1040.91,7024.67
1047.8,4501.67
1054.68,3985.67
1061.54,4043.67
1068.39,4507.0
1075.22,4337.33
1082.04,4040.0
1088.84,3927.33
1095.62,3942.33
1102.39,3574.33
1109.15,2840.0
1115.88,2430.0
1122.61,2080.67
1129.31,2010.0
1136.01,2150.33
1142.68,2826.33
1149.34,5024.67
1155.99,8329.33
1162.62,5185.33
1169.23,4491.67
1175.83,6696.33
1182.41,10606.0
1188.98,8892.0
1195.53,9516.33
1202.07,9388.33
1208.59,6990.0
1215.1,4622.0
1221.59,3737.33
1228.06,3249.0
1234.52,2784.0
1240.96,2564.33
1247.39,2546.33
1253.8,2420.0
1260.2,2322.67
1266.58,2271.67
1272.95,2263.0
1279.3,2320.33
1285.63,2351.33
1291.95,2534.67
1298.25,2811.0
1304.54,2974.0
1310.81,3109.67
1317.07,3524.67
1323.31,3929.67
1329.54,3960.0
1335.75,3500.67
1341.94,2848.67
1348.12,2497.33
1354.29,2310.0
1360.43,2285.33
1366.57,2251.33
1372.68,2178.0
1378.78,1841.33
1384.87,1514.0
1390.94,1349.0
1397.0,1331.33
1403.04,1307.33
1409.06,1275.67
1415.07,1201.0
1421.06,1201.0
1427.04,1272.0
1433.0,1624.67
1438.94,2346.67
1444.88,3226.0
1450.79,3796.0
1456.69,2652.67
1462.57,1529.0
1468.44,1247.67
1474.3,1127.67
1480.13,1085.67
1485.95,1088.0
1491.76,1216.0
1497.55,1153.33
1503.33,1004.67
1509.09,983.33
1514.83,992.67
1520.56,1001.33
1526.27,1015.0
1531.97,1000.0
1537.65,1024.0
1543.32,1060.33
1548.97,1067.0
1554.61,1178.33
1560.22,1170.67
1565.83,1295.0
1571.42,1546.67
1576.99,2298.33
1582.55,4638.67
1588.09,3413.67
1593.62,3424.67
1599.13,6872.33
1604.63,8270.67
1610.11,4004.33
1615.57,2181.67
1621.02,1731.67
1626.45,1548.0
1631.87,1441.33
1637.27,1340.33
1642.66,1273.0
1648.03,1229.0
1653.39,1252.67
1658.73,1182.0
1664.05,1132.0
1669.36,1089.67
1674.66,1068.33
1679.94,1007.67
1685.2,907.33
1690.45,891.0
1695.68,793.67
1700.89,728.0
1706.1,679.67
1711.28,643.33
1716.45,607.33
1721.6,543.0
1726.74,556.0
1731.87,533.0
1736.97,507.67
1742.07,488.33
1747.14,500.33
1752.2,454.0
1757.25,406.33
1762.28,454.0
1767.29,426.67
1772.29,406.67
1777.28,424.33
1782.25,358.33
1787.2,355.67
1792.14,348.0
1797.06,358.67
1801.96,388.33
1806.85,366.33
1811.73,368.67
1816.59,358.0
1821.43,342.0
1826.26,334.33
1831.07,335.0
1835.87,303.33
1840.65,334.0
1845.42,302.67
1850.17,302.67
1854.9,288.67
1859.62,299.67
1864.33,302.33
1869.02,287.33
1873.69,277.0
1878.35,277.0
1882.99,291.0
1887.62,278.33
1892.23,277.0
1893.38,275.67