File: mAb_dilution_wasatch_plastic/55% Raw + 45% Buffer_data.csv
Wavenumber,Intensities
282.29,6617.67
290.7,6098.0
299.09,5710.67
307.47,5483.0
315.83,5423.33
324.18,5500.0
332.51,5479.0
340.83,5422.0
349.13,5343.0
357.42,5321.67
365.69,5376.33
373.95,5604.33
382.19,5923.33
390.42,6289.0
398.63,6618.0
406.83,7049.33
415.01,6467.0
423.18,6110.67
431.33,5765.0
439.47,5633.0
447.59,5447.0
455.7,5123.0
463.79,4903.0
471.86,4751.0
479.93,4713.33
487.97,4707.0
496.0,4619.67
504.02,4442.33
512.02,4280.0
520.01,4288.0
527.98,4371.67
535.93,4719.0
543.87,4772.67
551.8,4631.0
559.71,4479.33
567.6,4319.33
575.48,4169.0
583.34,4016.67
591.19,3936.0
599.03,3926.33
606.84,4049.67
614.65,6032.0
622.43,12031.0
630.21,4861.33
637.96,3693.33
645.71,3352.67
653.43,3245.33
661.14,3171.67
668.84,3102.0
676.52,3058.0
684.19,3018.67
691.83,3064.0
699.47,3340.0
707.09,3241.0
714.69,3040.0
722.28,3060.33
729.85,3338.67
737.41,4318.33
744.95,4981.33
752.48,5718.0
759.99,6192.67
767.49,5839.33
774.97,5297.0
782.44,6088.0
789.89,8393.67
797.32,9576.0
804.74,6673.67
812.14,4982.67
819.53,3855.0
826.9,3469.0
834.26,3825.0
841.6,4327.0
848.93,3842.33
856.24,3574.0
863.54,3488.33
870.82,3380.67
878.08,3269.0
885.33,3223.33
892.57,3273.0
899.79,3680.0
906.99,3860.0
914.18,3225.0
921.35,2801.67
928.51,2701.67
935.65,2682.67
942.77,2825.33
949.88,2836.33
956.98,2944.0
964.06,3181.67
971.12,3303.67
978.17,4047.67
985.2,6281.33
992.22,12324.0
999.22,53143.67
1006.21,30416.67
1013.18,6591.67
1020.13,5772.67
1027.07,13562.33
1034.0,16378.33
1040.91,7301.67
1047.8,4630.0
1054.68,4104.33
1061.54,4217.0
1068.39,4665.33
1075.22,4481.67
1082.04,4141.0
1088.84,4012.0
1095.62,4074.0
1102.39,3686.67
1109.15,2909.67
1115.88,2573.0
1122.61,2168.0
1129.31,2120.0
1136.01,2215.0
1142.68,2915.0
1149.34,5203.0
1155.99,8503.67
1162.62,5313.0
1169.23,4599.0
1175.83,6853.33
1182.41,10841.67
1188.98,9219.67
1195.53,9933.0
1202.07,9818.67
1208.59,7181.0
1215.1,4790.33
1221.59,3900.33
1228.06,3365.33
1234.52,2889.33
1240.96,2713.67
1247.39,2634.67
1253.8,2496.0
1260.2,2415.0
1266.58,2377.0
1272.95,2388.33
1279.3,2396.33
1285.63,2437.67
1291.95,2650.0
1298.25,2871.67
1304.54,3086.67
1310.81,3209.67
1317.07,3585.67
1323.31,3990.33
1329.54,4114.33
1335.75,3643.33
1341.94,2955.0
1348.12,2587.33
1354.29,2402.33
1360.43,2414.67
1366.57,2342.67
1372.68,2237.67
1378.78,1945.0
1384.87,1588.33
1390.94,1397.0
1397.0,1402.0
1403.04,1349.33
1409.06,1335.0
1415.07,1291.0
1421.06,1268.0
1427.04,1316.33
1433.0,1707.33
1438.94,2429.0
1444.88,3332.33
1450.79,3880.67
1456.69,2762.67
1462.57,1592.0
1468.44,1283.0
1474.3,1177.0
1480.13,1131.67
1485.95,1121.33
1491.76,1227.67
1497.55,1205.0
1503.33,1053.0
1509.09,1045.33
1514.83,1044.0
1520.56,1069.33
1526.27,1059.67
1531.97,1060.67
1537.65,1062.0
1543.32,1064.67
1548.97,1107.33
1554.61,1188.0
1560.22,1179.33
1565.83,1312.67
1571.42,1592.0
1576.99,2402.33
1582.55,4731.0
1588.09,3518.33
1593.62,3555.0
1599.13,7054.33
1604.63,8508.67
1610.11,4128.67
1615.57,2236.33
1621.02,1741.67
1626.45,1593.67
1631.87,1470.33
1637.27,1384.67
1642.66,1314.67
1648.03,1231.33
1653.39,1244.0
1658.73,1201.33
1664.05,1166.0
1669.36,1111.0
1674.66,1110.0
1679.94,1031.67
1685.2,960.67
1690.45,920.33
1695.68,803.67
1700.89,761.0
1706.1,693.0
1711.28,680.0
1716.45,647.67
1721.6,592.33
1726.74,586.0
1731.87,564.33
1736.97,536.67
1742.07,540.0
1747.14,530.67
1752.2,465.33
1757.25,440.33
1762.28,482.0
1767.29,465.0
1772.29,405.0
1777.28,453.33
1782.25,402.67
1787.2,389.33
1792.14,421.33
1797.06,372.67
1801.96,412.33
1806.85,382.67
1811.73,408.67
1816.59,388.33
1821.43,367.0
1826.26,368.0
1831.07,349.0
1835.87,344.33
1840.65,331.67
1845.42,326.67
1850.17,328.0
1854.9,305.0
1859.62,316.33
1864.33,324.0
1869.02,306.33
1873.69,315.0
1878.35,284.67
1882.99,309.0
1887.62,310.0
1892.23,289.67
1893.38,295.0