File: mAb_dilution_wasatch_plastic/60% Raw + 40% Buffer_data.csv
Wavenumber,Intensities
282.29,8044.33
290.7,7372.33
299.09,6845.67
307.47,6587.67
315.83,6620.33
324.18,6666.0
332.51,6723.0
340.83,6652.33
349.13,6454.33
357.42,6386.0
365.69,6420.67
373.95,6805.67
382.19,7286.33
390.42,7826.67
398.63,8335.67
406.83,8993.33
415.01,8192.0
423.18,7419.0
431.33,6947.0
439.47,6719.0
447.59,6481.33
455.7,5997.67
463.79,5740.0
471.86,5510.67
479.93,5458.33
487.97,5438.67
496.0,5337.33
504.02,5173.0
512.02,5153.33
520.01,5103.0
527.98,5319.67
535.93,5918.0
543.87,6072.0
551.8,5743.33
559.71,5574.0
567.6,5372.33
575.48,5086.33
583.34,4922.0
591.19,4808.0
599.03,4779.0
606.84,5029.0
614.65,8226.67
622.43,17896.0
630.21,6449.67
637.96,4579.33
645.71,4029.67
653.43,3808.67
661.14,3761.33
668.84,3667.67
676.52,3606.0
684.19,3575.33
691.83,3639.67
699.47,4090.67
707.09,4001.67
714.69,3667.67
722.28,3722.0
729.85,4216.0
737.41,5737.0
744.95,6750.67
752.48,7876.0
759.99,8607.67
767.49,8115.33
774.97,7328.0
782.44,8409.33
789.89,11981.33
797.32,13757.33
804.74,9375.67
812.14,6854.33
819.53,5057.0
826.9,4477.67
834.26,5166.67
841.6,5976.33
848.93,5209.33
856.24,4800.33
863.54,4733.67
870.82,4561.33
878.08,4418.33
885.33,4337.67
892.57,4474.33
899.79,5139.67
906.99,5452.0
914.18,4467.67
921.35,3838.67
928.51,3662.33
935.65,3684.0
942.77,3845.0
949.88,3870.0
956.98,4074.0
964.06,4540.67
971.12,4628.33
978.17,5795.0
985.2,9302.33
992.22,18692.67
999.22,63620.67
1006.21,51247.67
1013.18,9821.67
1020.13,8422.67
1027.07,20521.0
1034.0,24851.67
1040.91,10924.0
1047.8,6834.33
1054.68,5996.67
1061.54,6137.33
1068.39,6861.0
1075.22,6634.67
1082.04,6144.67
1088.84,5945.67
1095.62,5985.0
1102.39,5377.67
1109.15,4209.33
1115.88,3596.67
1122.61,2999.33
1129.31,2905.67
1136.01,3101.0
1142.68,4193.0
1149.34,7831.67
1155.99,13267.67
1162.62,8025.33
1169.23,6894.67
1175.83,10470.33
1182.41,16828.0
1188.98,14087.67
1195.53,15009.0
1202.07,14781.0
1208.59,10764.67
1215.1,7076.0
1221.59,5713.0
1228.06,4861.33
1234.52,4058.33
1240.96,3805.67
1247.39,3709.33
1253.8,3567.67
1260.2,3427.67
1266.58,3380.67
1272.95,3330.0
1279.3,3391.33
1285.63,3526.0
1291.95,3806.67
1298.25,4257.67
1304.54,4553.67
1310.81,4798.0
1317.07,5358.67
1323.31,6096.67
1329.54,6214.0
1335.75,5502.67
1341.94,4387.67
1348.12,3774.33
1354.29,3531.0
1360.43,3449.0
1366.57,3436.33
1372.68,3302.0
1378.78,2741.0
1384.87,2216.33
1390.94,1903.0
1397.0,1875.67
1403.04,1848.0
1409.06,1775.33
1415.07,1718.33
1421.06,1712.33
1427.04,1793.67
1433.0,2433.67
1438.94,3640.33
1444.88,5078.67
1450.79,5994.33
1456.69,4173.67
1462.57,2254.33
1468.44,1764.33
1474.3,1613.33
1480.13,1516.0
1485.95,1541.33
1491.76,1732.67
1497.55,1677.0
1503.33,1440.33
1509.09,1418.0
1514.83,1401.0
1520.56,1399.67
1526.27,1388.33
1531.97,1361.67
1537.65,1403.67
1543.32,1443.67
1548.97,1485.67
1554.61,1561.33
1560.22,1570.33
1565.83,1772.33
1571.42,2236.33
1576.99,3557.33
1582.55,7427.0
1588.09,5324.33
1593.62,5445.67
1599.13,11275.33
1604.63,13530.67
1610.11,6318.0
1615.57,3126.0
1621.02,2334.0
1626.45,1994.33
1631.87,1799.67
1637.27,1609.67
1642.66,1549.0
1648.03,1475.33
1653.39,1408.67
1658.73,1396.0
1664.05,1337.0
1669.36,1288.33
1674.66,1284.33
1679.94,1223.67
1685.2,1147.0
1690.45,1106.33
1695.68,986.0
1700.89,948.0
1706.1,873.0
1711.28,845.67
1716.45,807.33
1721.6,767.0
1726.74,771.67
1731.87,733.0
1736.97,712.67
1742.07,697.0
1747.14,701.0
1752.2,656.67
1757.25,628.0
1762.28,626.33
1767.29,613.0
1772.29,588.67
1777.28,611.33
1782.25,572.0
1787.2,556.67
1792.14,550.67
1797.06,542.33
1801.96,567.0
1806.85,552.0
1811.73,542.67
1816.59,543.0
1821.43,514.0
1826.26,524.0
1831.07,480.67
1835.87,480.67
1840.65,497.67
1845.42,454.33
1850.17,447.0
1854.9,439.33
1859.62,442.67
1864.33,446.67
1869.02,425.67
1873.69,413.67
1878.35,409.0
1882.99,414.0
1887.62,412.33
1892.23,388.67
1893.38,397.33