File: mAb_dilution_wasatch_plastic/65% Raw + 30% Buffer_data.csv
Wavenumber,Intensities
282.29,5655.0
290.7,5242.33
299.09,4852.67
307.47,4675.33
315.83,4703.0
324.18,4748.0
332.51,4784.0
340.83,4717.0
349.13,4598.0
357.42,4589.0
365.69,4636.0
373.95,4856.33
382.19,5185.67
390.42,5552.33
398.63,5908.0
406.83,6382.33
415.01,5812.67
423.18,5326.0
431.33,4953.67
439.47,4793.0
447.59,4658.33
455.7,4334.67
463.79,4108.33
471.86,3970.33
479.93,3929.67
487.97,3914.0
496.0,3829.67
504.02,3688.33
512.02,3674.33
520.01,3642.33
527.98,3794.67
535.93,4182.67
543.87,4271.33
551.8,4115.67
559.71,3955.33
567.6,3823.0
575.48,3664.0
583.34,3495.33
591.19,3399.33
599.03,3426.33
606.84,3587.67
614.65,5757.67
622.43,12322.33
630.21,4536.33
637.96,3251.67
645.71,2915.0
653.43,2762.0
661.14,2700.67
668.84,2642.67
676.52,2594.67
684.19,2575.67
691.83,2627.67
699.47,2931.33
707.09,2885.67
714.69,2624.67
722.28,2682.0
729.85,3032.0
737.41,4055.33
744.95,4734.67
752.48,5510.33
759.99,6009.33
767.49,5652.33
774.97,5093.0
782.44,5926.33
789.89,8321.33
797.32,9531.33
804.74,6548.0
812.14,4785.0
819.53,3621.0
826.9,3222.33
834.26,3636.33
841.6,4203.33
848.93,3695.67
856.24,3385.67
863.54,3322.67
870.82,3260.67
878.08,3121.0
885.33,3106.0
892.57,3188.33
899.79,3643.33
906.99,3852.33
914.18,3170.33
921.35,2761.33
928.51,2615.67
935.65,2606.0
942.77,2729.0
949.88,2790.33
956.98,2899.33
964.06,3214.67
971.12,3276.67
978.17,4059.67
985.2,6418.33
992.22,12766.67
999.22,55099.0
1006.21,31873.33
1013.18,6823.33
1020.13,5896.67
1027.07,14073.67
1034.0,17084.33
1040.91,7524.67
1047.8,4749.67
1054.68,4197.33
1061.54,4279.0
1068.39,4794.67
1075.22,4627.33
1082.04,4291.67
1088.84,4172.67
1095.62,4217.0
1102.39,3780.67
1109.15,2926.0
1115.88,2537.0
1122.61,2119.67
1129.31,2050.0
1136.01,2217.33
1142.68,2963.0
1149.34,5391.67
1155.99,9164.33
1162.62,5585.33
1169.23,4789.0
1175.83,7219.33
1182.41,11613.33
1188.98,9668.0
1195.53,10277.0
1202.07,10151.0
1208.59,7493.67
1215.1,4968.67
1221.59,3951.0
1228.06,3417.33
1234.52,2870.0
1240.96,2692.33
1247.39,2608.33
1253.8,2542.67
1260.2,2411.0
1266.58,2378.33
1272.95,2365.33
1279.3,2386.67
1285.63,2469.0
1291.95,2709.33
1298.25,2993.0
1304.54,3155.33
1310.81,3313.33
1317.07,3727.33
1323.31,4258.67
1329.54,4345.0
1335.75,3866.33
1341.94,3130.0
1348.12,2667.0
1354.29,2467.67
1360.43,2432.67
1366.57,2426.33
1372.68,2303.67
1378.78,1957.67
1384.87,1561.67
1390.94,1407.33
1397.0,1370.67
1403.04,1344.0
1409.06,1310.0
1415.07,1271.67
1421.06,1240.67
1427.04,1302.33
1433.0,1716.0
1438.94,2563.0
1444.88,3542.33
1450.79,4150.0
1456.69,2932.33
1462.57,1570.67
1468.44,1278.0
1474.3,1166.67
1480.13,1132.67
1485.95,1116.0
1491.76,1259.33
1497.55,1189.67
1503.33,1049.0
1509.09,999.0
1514.83,1009.0
1520.56,1017.33
1526.27,1016.67
1531.97,998.67
1537.65,1025.33
1543.32,1035.33
1548.97,1061.67
1554.61,1135.0
1560.22,1153.0
1565.83,1274.67
1571.42,1572.0
1576.99,2480.33
1582.55,5120.67
1588.09,3710.67
1593.62,3756.33
1599.13,7764.67
1604.63,9404.67
1610.11,4365.0
1615.57,2190.33
1621.02,1657.0
1626.45,1430.33
1631.87,1301.0
1637.27,1197.33
1642.66,1108.33
1648.03,1066.67
1653.39,1050.33
1658.73,1032.67
1664.05,996.33
1669.36,948.0
1674.66,934.0
1679.94,901.0
1685.2,838.0
1690.45,806.33
1695.68,716.0
1700.89,705.0
1706.1,672.0
1711.28,637.33
1716.45,607.33
1721.6,557.67
1726.74,563.33
1731.87,546.67
1736.97,537.0
1742.07,526.0
1747.14,513.0
1752.2,488.33
1757.25,462.0
1762.28,477.0
1767.29,471.0
1772.29,436.67
1777.28,464.33
1782.25,419.0
1787.2,386.0
1792.14,421.33
1797.06,390.0
1801.96,417.33
1806.85,413.0
1811.73,416.33
1816.59,400.0
1821.43,385.67
1826.26,370.67
1831.07,369.33
1835.87,356.67
1840.65,357.0
1845.42,369.67
1850.17,330.33
1854.9,338.0
1859.62,347.67
1864.33,342.67
1869.02,333.0
1873.69,326.33
1878.35,310.33
1882.99,333.0
1887.62,320.0
1892.23,321.67
1893.38,293.67