File: mAb_dilution_wasatch_plastic/70% Raw + 30% Buffer_data.csv
Wavenumber,Intensities
282.29,5462.33
290.7,4926.0
299.09,4511.0
307.47,4292.0
315.83,4328.33
324.18,4428.0
332.51,4429.67
340.83,4370.0
349.13,4185.33
357.42,4169.0
365.69,4252.67
373.95,4504.33
382.19,4912.0
390.42,5371.33
398.63,5847.0
406.83,6406.67
415.01,5684.0
423.18,5050.0
431.33,4681.33
439.47,4461.33
447.59,4250.0
455.7,3857.67
463.79,3655.33
471.86,3480.0
479.93,3441.33
487.97,3427.67
496.0,3355.33
504.02,3267.0
512.02,3224.67
520.01,3217.0
527.98,3403.33
535.93,3915.67
543.87,4072.33
551.8,3818.33
559.71,3661.67
567.6,3524.67
575.48,3308.33
583.34,3135.0
591.19,3050.0
599.03,3045.33
606.84,3288.67
614.65,5999.0
622.43,13974.67
630.21,4499.33
637.96,2949.0
645.71,2473.0
653.43,2348.0
661.14,2264.33
668.84,2189.33
676.52,2156.67
684.19,2147.67
691.83,2212.0
699.47,2588.33
707.09,2457.67
714.69,2239.67
722.28,2263.0
729.85,2711.0
737.41,4005.67
744.95,4845.67
752.48,5762.33
759.99,6363.33
767.49,5980.0
774.97,5387.0
782.44,6279.33
789.89,9262.67
797.32,10685.67
804.74,7083.67
812.14,4949.67
819.53,3533.33
826.9,3013.33
834.26,3585.67
841.6,4198.33
848.93,3639.67
856.24,3290.67
863.54,3231.33
870.82,3141.67
878.08,3021.0
885.33,2977.0
892.57,3079.67
899.79,3658.67
906.99,3919.33
914.18,3141.33
921.35,2595.33
928.51,2473.0
935.65,2493.0
942.77,2598.33
949.88,2660.0
956.98,2774.33
964.06,3198.33
971.12,3306.0
978.17,4246.0
985.2,7183.67
992.22,14991.67
999.22,63620.67
1006.21,39583.67
1013.18,7643.33
1020.13,6501.67
1027.07,16559.33
1034.0,20212.0
1040.91,8628.0
1047.8,5150.67
1054.68,4489.0
1061.54,4638.67
1068.39,5200.67
1075.22,5016.0
1082.04,4585.33
1088.84,4466.0
1095.62,4480.33
1102.39,4032.33
1109.15,3016.0
1115.88,2523.0
1122.61,2051.33
1129.31,1917.33
1136.01,2108.67
1142.68,3051.67
1149.34,6060.0
1155.99,10601.0
1162.62,6263.67
1169.23,5278.67
1175.83,8327.67
1182.41,13602.0
1188.98,11319.67
1195.53,12100.67
1202.07,11915.67
1208.59,8572.33
1215.1,5490.33
1221.59,4301.33
1228.06,3613.33
1234.52,3005.33
1240.96,2751.67
1247.39,2691.67
1253.8,2569.33
1260.2,2411.0
1266.58,2369.33
1272.95,2362.0
1279.3,2429.0
1285.63,2523.67
1291.95,2814.67
1298.25,3128.33
1304.54,3374.0
1310.81,3613.33
1317.07,4078.0
1323.31,4694.0
1329.54,4780.0
1335.75,4224.33
1341.94,3291.67
1348.12,2773.67
1354.29,2544.0
1360.43,2541.33
1366.57,2528.33
1372.68,2389.67
1378.78,1940.0
1384.87,1499.67
1390.94,1287.0
1397.0,1233.67
1403.04,1206.33
1409.06,1179.33
1415.07,1092.0
1421.06,1088.33
1427.04,1191.0
1433.0,1716.0
1438.94,2724.0
1444.88,3989.0
1450.79,4705.0
1456.69,3170.33
1462.57,1538.0
1468.44,1173.0
1474.3,1024.67
1480.13,984.67
1485.95,967.0
1491.76,1136.33
1497.55,1093.67
1503.33,920.0
1509.09,870.67
1514.83,895.0
1520.56,890.0
1526.27,846.67
1531.97,888.67
1537.65,892.33
1543.32,921.67
1548.97,970.67
1554.61,1052.67
1560.22,1065.67
1565.83,1215.0
1571.42,1611.0
1576.99,2731.0
1582.55,6004.0
1588.09,4248.67
1593.62,4316.67
1599.13,9277.0
1604.63,11251.33
1610.11,5012.0
1615.57,2367.67
1621.02,1650.33
1626.45,1383.67
1631.87,1218.67
1637.27,1065.67
1642.66,996.0
1648.03,965.67
1653.39,918.67
1658.73,872.0
1664.05,869.67
1669.36,835.33
1674.66,833.0
1679.94,805.33
1685.2,716.33
1690.45,727.67
1695.68,633.0
1700.89,590.0
1706.1,543.0
1711.28,523.0
1716.45,497.33
1721.6,469.33
1726.74,491.0
1731.87,437.67
1736.97,431.33
1742.07,436.33
1747.14,441.67
1752.2,411.33
1757.25,364.33
1762.28,403.33
1767.29,371.0
1772.29,342.67
1777.28,392.67
1782.25,349.33
1787.2,339.0
1792.14,353.0
1797.06,328.33
1801.96,359.33
1806.85,357.0
1811.73,359.33
1816.59,343.0
1821.43,328.0
1826.26,327.0
1831.07,298.33
1835.87,292.33
1840.65,302.67
1845.42,294.0
1850.17,274.67
1854.9,260.67
1859.62,258.0
1864.33,278.33
1869.02,250.33
1873.69,253.0
1878.35,255.67
1882.99,291.33
1887.62,273.33
1892.23,235.33
1893.38,235.33