File: mAb_dilution_wasatch_plastic/75% Raw + 25% Buffer_data.csv
Wavenumber,Intensities
282.29,3402.0
290.7,3075.0
299.09,2794.0
307.47,2677.0
315.83,2806.0
324.18,2821.0
332.51,2825.0
340.83,2799.0
349.13,2677.0
357.42,2676.0
365.69,2734.0
373.95,2928.0
382.19,3258.0
390.42,3562.0
398.63,3850.0
406.83,4359.0
415.01,3816.0
423.18,3304.0
431.33,3083.0
439.47,2878.0
447.59,2733.0
455.7,2468.0
463.79,2321.0
471.86,2141.0
479.93,2088.0
487.97,2141.0
496.0,2070.0
504.02,1963.0
512.02,1872.0
520.01,1850.0
527.98,1955.0
535.93,2377.0
543.87,2475.0
551.8,2316.0
559.71,2143.0
567.6,2047.0
575.48,1906.0
583.34,1770.0
591.19,1731.0
599.03,1739.0
606.84,1919.0
614.65,3865.0
622.43,10071.0
630.21,2840.0
637.96,1674.0
645.71,1299.0
653.43,1211.0
661.14,1199.0
668.84,1150.0
676.52,1128.0
684.19,1116.0
691.83,1169.0
699.47,1420.0
707.09,1401.0
714.69,1165.0
722.28,1219.0
729.85,1530.0
737.41,2489.0
744.95,3151.0
752.48,3799.0
759.99,4276.0
767.49,3979.0
774.97,3565.0
782.44,4211.0
789.89,6405.0
797.32,7522.0
804.74,4856.0
812.14,3242.0
819.53,2214.0
826.9,1917.0
834.26,2240.0
841.6,2783.0
848.93,2385.0
856.24,2168.0
863.54,2017.0
870.82,1952.0
878.08,1842.0
885.33,1872.0
892.57,1970.0
899.79,2406.0
906.99,2586.0
914.18,2028.0
921.35,1667.0
928.51,1507.0
935.65,1549.0
942.77,1644.0
949.88,1679.0
956.98,1796.0
964.06,2103.0
971.12,2221.0
978.17,2904.0
985.2,4962.0
992.22,10719.0
999.22,48201.0
1006.21,29164.0
1013.18,5525.0
1020.13,4587.0
1027.07,11813.0
1034.0,14797.0
1040.91,6189.0
1047.8,3622.0
1054.68,3121.0
1061.54,3159.0
1068.39,3660.0
1075.22,3547.0
1082.04,3216.0
1088.84,3106.0
1095.62,3102.0
1102.39,2818.0
1109.15,2073.0
1115.88,1667.0
1122.61,1301.0
1129.31,1245.0
1136.01,1378.0
1142.68,2050.0
1149.34,4290.0
1155.99,7768.0
1162.62,4526.0
1169.23,3725.0
1175.83,5987.0
1182.41,10058.0
1188.98,8174.0
1195.53,8744.0
1202.07,8619.0
1208.59,6231.0
1215.1,3907.0
1221.59,3043.0
1228.06,2537.0
1234.52,1978.0
1240.96,1827.0
1247.39,1777.0
1253.8,1678.0
1260.2,1617.0
1266.58,1570.0
1272.95,1587.0
1279.3,1639.0
1285.63,1705.0
1291.95,1948.0
1298.25,2171.0
1304.54,2362.0
1310.81,2513.0
1317.07,2897.0
1323.31,3400.0
1329.54,3520.0
1335.75,3007.0
1341.94,2297.0
1348.12,1948.0
1354.29,1815.0
1360.43,1769.0
1366.57,1716.0
1372.68,1644.0
1378.78,1337.0
1384.87,979.0
1390.94,794.0
1397.0,763.0
1403.04,752.0
1409.06,699.0
1415.07,687.0
1421.06,714.0
1427.04,748.0
1433.0,1147.0
1438.94,1932.0
1444.88,2935.0
1450.79,3470.0
1456.69,2323.0
1462.57,1101.0
1468.44,706.0
1474.3,664.0
1480.13,638.0
1485.95,581.0
1491.76,771.0
1497.55,695.0
1503.33,585.0
1509.09,520.0
1514.83,577.0
1520.56,517.0
1526.27,531.0
1531.97,565.0
1537.65,539.0
1543.32,535.0
1548.97,638.0
1554.61,687.0
1560.22,691.0
1565.83,793.0
1571.42,1089.0
1576.99,2027.0
1582.55,4592.0
1588.09,3211.0
1593.62,3273.0
1599.13,7134.0
1604.63,8729.0
1610.11,3850.0
1615.57,1664.0
1621.02,1098.0
1626.45,877.0
1631.87,748.0
1637.27,622.0
1642.66,592.0
1648.03,532.0
1653.39,554.0
1658.73,463.0
1664.05,493.0
1669.36,422.0
1674.66,463.0
1679.94,425.0
1685.2,417.0
1690.45,418.0
1695.68,380.0
1700.89,361.0
1706.1,342.0
1711.28,312.0
1716.45,269.0
1721.6,308.0
1726.74,296.0
1731.87,304.0
1736.97,246.0
1742.07,258.0
1747.14,278.0
1752.2,266.0
1757.25,246.0
1762.28,258.0
1767.29,265.0
1772.29,243.0
1777.28,213.0
1782.25,239.0
1787.2,237.0
1792.14,249.0
1797.06,203.0
1801.96,232.0
1806.85,246.0
1811.73,239.0
1816.59,239.0
1821.43,239.0
1826.26,232.0
1831.07,231.0
1835.87,201.0
1840.65,201.0
1845.42,175.0
1850.17,201.0
1854.9,213.0
1859.62,175.0
1864.33,179.0
1869.02,156.0
1873.69,175.0
1878.35,178.0
1882.99,205.0
1887.62,174.0
1892.23,178.0
1893.38,167.0