File: mAb_dilution_wasatch_plastic/80% Raw + 20% Buffer_data.csv
Wavenumber,Intensities
282.29,6677.0
290.7,6136.0
299.09,5824.0
307.47,5589.0
315.83,5487.0
324.18,5494.0
332.51,5460.0
340.83,5475.0
349.13,5327.0
357.42,5384.0
365.69,5346.0
373.95,5608.0
382.19,5817.0
390.42,6007.0
398.63,6306.0
406.83,6656.0
415.01,6299.0
423.18,6020.0
431.33,5758.0
439.47,5748.0
447.59,5532.0
455.7,5243.0
463.79,5161.0
471.86,4970.0
479.93,4959.0
487.97,4943.0
496.0,4876.0
504.02,4708.0
512.02,4500.0
520.01,4454.0
527.98,4412.0
535.93,4674.0
543.87,4763.0
551.8,4628.0
559.71,4387.0
567.6,4348.0
575.48,4199.0
583.34,4127.0
591.19,4066.0
599.03,4017.0
606.84,4102.0
614.65,5505.0
622.43,10001.0
630.21,4644.0
637.96,3781.0
645.71,3569.0
653.43,3395.0
661.14,3364.0
668.84,3341.0
676.52,3254.0
684.19,3193.0
691.83,3244.0
699.47,3383.0
707.09,3372.0
714.69,3155.0
722.28,3125.0
729.85,3348.0
737.41,4079.0
744.95,4487.0
752.48,4983.0
759.99,5369.0
767.49,5101.0
774.97,4693.0
782.44,5145.0
789.89,6891.0
797.32,7613.0
804.74,5657.0
812.14,4336.0
819.53,3535.0
826.9,3349.0
834.26,3573.0
841.6,3877.0
848.93,3569.0
856.24,3390.0
863.54,3251.0
870.82,3137.0
878.08,3136.0
885.33,3023.0
892.57,3098.0
899.79,3370.0
906.99,3387.0
914.18,3000.0
921.35,2700.0
928.51,2631.0
935.65,2559.0
942.77,2654.0
949.88,2559.0
956.98,2718.0
964.06,2908.0
971.12,2954.0
978.17,3478.0
985.2,5006.0
992.22,9310.0
999.22,38102.0
1006.21,22641.0
1013.18,5331.0
1020.13,4667.0
1027.07,10123.0
1034.0,12397.0
1040.91,5708.0
1047.8,3850.0
1054.68,3432.0
1061.54,3558.0
1068.39,3816.0
1075.22,3736.0
1082.04,3474.0
1088.84,3383.0
1095.62,3372.0
1102.39,3106.0
1109.15,2646.0
1115.88,2327.0
1122.61,2064.0
1129.31,1982.0
1136.01,2092.0
1142.68,2567.0
1149.34,4131.0
1155.99,6686.0
1162.62,4389.0
1169.23,3782.0
1175.83,5437.0
1182.41,8239.0
1188.98,7134.0
1195.53,7457.0
1202.07,7373.0
1208.59,5570.0
1215.1,3922.0
1221.59,3282.0
1228.06,2890.0
1234.52,2601.0
1240.96,2370.0
1247.39,2384.0
1253.8,2320.0
1260.2,2195.0
1266.58,2170.0
1272.95,2153.0
1279.3,2159.0
1285.63,2172.0
1291.95,2318.0
1298.25,2507.0
1304.54,2618.0
1310.81,2737.0
1317.07,2996.0
1323.31,3302.0
1329.54,3334.0
1335.75,3015.0
1341.94,2479.0
1348.12,2248.0
1354.29,2100.0
1360.43,2073.0
1366.57,2035.0
1372.68,1989.0
1378.78,1701.0
1384.87,1458.0
1390.94,1344.0
1397.0,1299.0
1403.04,1302.0
1409.06,1265.0
1415.07,1226.0
1421.06,1272.0
1427.04,1287.0
1433.0,1519.0
1438.94,2039.0
1444.88,2734.0
1450.79,3121.0
1456.69,2327.0
1462.57,1492.0
1468.44,1211.0
1474.3,1112.0
1480.13,1136.0
1485.95,1044.0
1491.76,1193.0
1497.55,1090.0
1503.33,1006.0
1509.09,1006.0
1514.83,980.0
1520.56,987.0
1526.27,1028.0
1531.97,1025.0
1537.65,1014.0
1543.32,1033.0
1548.97,1105.0
1554.61,1192.0
1560.22,1170.0
1565.83,1226.0
1571.42,1393.0
1576.99,1978.0
1582.55,3575.0
1588.09,2778.0
1593.62,2783.0
1599.13,5182.0
1604.63,6306.0
1610.11,3315.0
1615.57,2039.0
1621.02,1652.0
1626.45,1507.0
1631.87,1450.0
1637.27,1382.0
1642.66,1370.0
1648.03,1390.0
1653.39,1314.0
1658.73,1279.0
1664.05,1264.0
1669.36,1219.0
1674.66,1132.0
1679.94,1109.0
1685.2,979.0
1690.45,987.0
1695.68,858.0
1700.89,786.0
1706.1,748.0
1711.28,673.0
1716.45,596.0
1721.6,631.0
1726.74,619.0
1731.87,554.0
1736.97,493.0
1742.07,537.0
1747.14,513.0
1752.2,490.0
1757.25,463.0
1762.28,444.0
1767.29,459.0
1772.29,437.0
1777.28,353.0
1782.25,395.0
1787.2,382.0
1792.14,393.0
1797.06,397.0
1801.96,361.0
1806.85,379.0
1811.73,361.0
1816.59,387.0
1821.43,346.0
1826.26,327.0
1831.07,364.0
1835.87,323.0
1840.65,319.0
1845.42,319.0
1850.17,319.0
1854.9,300.0
1859.62,312.0
1864.33,323.0
1869.02,269.0
1873.69,293.0
1878.35,269.0
1882.99,297.0
1887.62,288.0
1892.23,285.0
1893.38,262.0