File: mAb_dilution_wasatch_plastic/85% Raw + 15% Buffer_data.csv
Wavenumber,Intensities
282.29,6481.0
290.7,6048.0
299.09,5661.0
307.47,5487.0
315.83,5400.0
324.18,5418.0
332.51,5308.0
340.83,5303.0
349.13,5320.0
357.42,5201.0
365.69,5274.0
373.95,5445.0
382.19,5684.0
390.42,5886.0
398.63,6155.0
406.83,6470.0
415.01,6185.0
423.18,5829.0
431.33,5668.0
439.47,5585.0
447.59,5421.0
455.7,5179.0
463.79,5055.0
471.86,4909.0
479.93,4879.0
487.97,4892.0
496.0,4758.0
504.02,4556.0
512.02,4465.0
520.01,4344.0
527.98,4351.0
535.93,4640.0
543.87,4697.0
551.8,4507.0
559.71,4292.0
567.6,4306.0
575.48,4139.0
583.34,3991.0
591.19,3981.0
599.03,3903.0
606.84,4007.0
614.65,5321.0
622.43,9177.0
630.21,4435.0
637.96,3717.0
645.71,3497.0
653.43,3421.0
661.14,3345.0
668.84,3246.0
676.52,3220.0
684.19,3129.0
691.83,3212.0
699.47,3383.0
707.09,3319.0
714.69,3162.0
722.28,3125.0
729.85,3333.0
737.41,3928.0
744.95,4317.0
752.48,4759.0
759.99,5096.0
767.49,4868.0
774.97,4439.0
782.44,4864.0
789.89,6417.0
797.32,7089.0
804.74,5228.0
812.14,4222.0
819.53,3471.0
826.9,3204.0
834.26,3451.0
841.6,3744.0
848.93,3417.0
856.24,3269.0
863.54,3114.0
870.82,3053.0
878.08,3015.0
885.33,2916.0
892.57,2935.0
899.79,3249.0
906.99,3284.0
914.18,2905.0
921.35,2616.0
928.51,2585.0
935.65,2509.0
942.77,2536.0
949.88,2559.0
956.98,2650.0
964.06,2791.0
971.12,2836.0
978.17,3223.0
985.2,4632.0
992.22,8467.0
999.22,34259.0
1006.21,19759.0
1013.18,4902.0
1020.13,4363.0
1027.07,9197.0
1034.0,10897.0
1040.91,5224.0
1047.8,3550.0
1054.68,3269.0
1061.54,3300.0
1068.39,3588.0
1075.22,3505.0
1082.04,3246.0
1088.84,3216.0
1095.62,3186.0
1102.39,3000.0
1109.15,2498.0
1115.88,2206.0
1122.61,1984.0
1129.31,1929.0
1136.01,1978.0
1142.68,2407.0
1149.34,3876.0
1155.99,6044.0
1162.62,3964.0
1169.23,3478.0
1175.83,4962.0
1182.41,7476.0
1188.98,6424.0
1195.53,6785.0
1202.07,6701.0
1208.59,5099.0
1215.1,3668.0
1221.59,3081.0
1228.06,2704.0
1234.52,2434.0
1240.96,2290.0
1247.39,2274.0
1253.8,2172.0
1260.2,2145.0
1266.58,2048.0
1272.95,2107.0
1279.3,2072.0
1285.63,2085.0
1291.95,2233.0
1298.25,2312.0
1304.54,2426.0
1310.81,2612.0
1317.07,2822.0
1323.31,3089.0
1329.54,3106.0
1335.75,2829.0
1341.94,2343.0
1348.12,2073.0
1354.29,1990.0
1360.43,1917.0
1366.57,2004.0
1372.68,1837.0
1378.78,1659.0
1384.87,1423.0
1390.94,1322.0
1397.0,1272.0
1403.04,1272.0
1409.06,1257.0
1415.07,1247.0
1421.06,1258.0
1427.04,1287.0
1433.0,1458.0
1438.94,1940.0
1444.88,2518.0
1450.79,2893.0
1456.69,2130.0
1462.57,1401.0
1468.44,1181.0
1474.3,1139.0
1480.13,1128.0
1485.95,1078.0
1491.76,1109.0
1497.55,1098.0
1503.33,995.0
1509.09,953.0
1514.83,1006.0
1520.56,976.0
1526.27,998.0
1531.97,994.0
1537.65,1044.0
1543.32,1018.0
1548.97,1097.0
1554.61,1151.0
1560.22,1102.0
1565.83,1203.0
1571.42,1351.0
1576.99,1856.0
1582.55,3324.0
1588.09,2542.0
1593.62,2593.0
1599.13,4818.0
1604.63,5604.0
1610.11,3007.0
1615.57,1918.0
1621.02,1576.0
1626.45,1488.0
1631.87,1412.0
1637.27,1389.0
1642.66,1344.0
1648.03,1326.0
1653.39,1283.0
1658.73,1239.0
1664.05,1228.0
1669.36,1174.0
1674.66,1155.0
1679.94,1029.0
1685.2,968.0
1690.45,923.0
1695.68,816.0
1700.89,740.0
1706.1,707.0
1711.28,665.0
1716.45,634.0
1721.6,608.0
1726.74,596.0
1731.87,562.0
1736.97,501.0
1742.07,501.0
1747.14,551.0
1752.2,471.0
1757.25,463.0
1762.28,429.0
1767.29,459.0
1772.29,403.0
1777.28,410.0
1782.25,414.0
1787.2,393.0
1792.14,389.0
1797.06,378.0
1801.96,353.0
1806.85,364.0
1811.73,334.0
1816.59,345.0
1821.43,357.0
1826.26,342.0
1831.07,326.0
1835.87,326.0
1840.65,311.0
1845.42,334.0
1850.17,365.0
1854.9,331.0
1859.62,300.0
1864.33,304.0
1869.02,292.0
1873.69,277.0
1878.35,243.0
1882.99,319.0
1887.62,284.0
1892.23,283.0
1893.38,269.0