File: mAb_dilution_wasatch_plastic/90% Raw + 10% Buffer_data.csv
Wavenumber,Intensities
282.29,6819.0
290.7,6284.0
299.09,5893.0
307.47,5646.0
315.83,5563.0
324.18,5581.0
332.51,5597.0
340.83,5517.0
349.13,5437.0
357.42,5403.0
365.69,5403.0
373.95,5643.0
382.19,5939.0
390.42,6235.0
398.63,6546.0
406.83,6926.0
415.01,6428.0
423.18,6068.0
431.33,5889.0
439.47,5744.0
447.59,5532.0
455.7,5323.0
463.79,5142.0
471.86,4947.0
479.93,4909.0
487.97,4928.0
496.0,4786.0
504.02,4682.0
512.02,4456.0
520.01,4412.0
527.98,4492.0
535.93,4785.0
543.87,4886.0
551.8,4772.0
559.71,4535.0
567.6,4378.0
575.48,4294.0
583.34,4074.0
591.19,4078.0
599.03,4062.0
606.84,4182.0
614.65,5775.0
622.43,10867.0
630.21,4773.0
637.96,3789.0
645.71,3535.0
653.43,3429.0
661.14,3364.0
668.84,3303.0
676.52,3178.0
684.19,3216.0
691.83,3250.0
699.47,3421.0
707.09,3437.0
714.69,3109.0
722.28,3190.0
729.85,3436.0
737.41,4209.0
744.95,4696.0
752.48,5416.0
759.99,5760.0
767.49,5418.0
774.97,5035.0
782.44,5555.0
789.89,7575.0
797.32,8452.0
804.74,6071.0
812.14,4605.0
819.53,3759.0
826.9,3459.0
834.26,3755.0
841.6,4138.0
848.93,3706.0
856.24,3534.0
863.54,3387.0
870.82,3300.0
878.08,3281.0
885.33,3125.0
892.57,3208.0
899.79,3552.0
906.99,3698.0
914.18,3205.0
921.35,2818.0
928.51,2718.0
935.65,2718.0
942.77,2771.0
949.88,2799.0
956.98,2889.0
964.06,3132.0
971.12,3132.0
978.17,3717.0
985.2,5604.0
992.22,10597.0
999.22,44264.0
1006.21,25211.0
1013.18,5901.0
1020.13,5141.0
1027.07,11653.0
1034.0,13754.0
1040.91,6397.0
1047.8,4214.0
1054.68,3717.0
1061.54,3858.0
1068.39,4249.0
1075.22,4086.0
1082.04,3823.0
1088.84,3721.0
1095.62,3657.0
1102.39,3402.0
1109.15,2775.0
1115.88,2479.0
1122.61,2178.0
1129.31,2088.0
1136.01,2202.0
1142.68,2719.0
1149.34,4700.0
1155.99,7442.0
1162.62,4750.0
1169.23,4192.0
1175.83,6151.0
1182.41,9393.0
1188.98,7859.0
1195.53,8429.0
1202.07,8444.0
1208.59,6227.0
1215.1,4382.0
1221.59,3521.0
1228.06,3133.0
1234.52,2738.0
1240.96,2628.0
1247.39,2502.0
1253.8,2506.0
1260.2,2362.0
1266.58,2318.0
1272.95,2358.0
1279.3,2311.0
1285.63,2347.0
1291.95,2498.0
1298.25,2737.0
1304.54,2863.0
1310.81,3003.0
1317.07,3368.0
1323.31,3624.0
1329.54,3725.0
1335.75,3353.0
1341.94,2745.0
1348.12,2445.0
1354.29,2235.0
1360.43,2251.0
1366.57,2232.0
1372.68,2133.0
1378.78,1834.0
1384.87,1594.0
1390.94,1454.0
1397.0,1397.0
1403.04,1363.0
1409.06,1307.0
1415.07,1306.0
1421.06,1279.0
1427.04,1321.0
1433.0,1606.0
1438.94,2232.0
1444.88,3000.0
1450.79,3474.0
1456.69,2540.0
1462.57,1580.0
1468.44,1306.0
1474.3,1219.0
1480.13,1177.0
1485.95,1120.0
1491.76,1238.0
1497.55,1120.0
1503.33,1056.0
1509.09,991.0
1514.83,1044.0
1520.56,999.0
1526.27,1047.0
1531.97,1044.0
1537.65,1060.0
1543.32,1075.0
1548.97,1108.0
1554.61,1215.0
1560.22,1189.0
1565.83,1237.0
1571.42,1511.0
1576.99,2177.0
1582.55,4089.0
1588.09,3062.0
1593.62,3124.0
1599.13,5999.0
1604.63,7179.0
1610.11,3653.0
1615.57,2153.0
1621.02,1694.0
1626.45,1568.0
1631.87,1495.0
1637.27,1435.0
1642.66,1359.0
1648.03,1360.0
1653.39,1297.0
1658.73,1291.0
1664.05,1245.0
1669.36,1174.0
1674.66,1211.0
1679.94,1105.0
1685.2,987.0
1690.45,945.0
1695.68,873.0
1700.89,809.0
1706.1,737.0
1711.28,684.0
1716.45,618.0
1721.6,627.0
1726.74,622.0
1731.87,573.0
1736.97,527.0
1742.07,520.0
1747.14,551.0
1752.2,520.0
1757.25,497.0
1762.28,475.0
1767.29,486.0
1772.29,410.0
1777.28,391.0
1782.25,410.0
1787.2,423.0
1792.14,397.0
1797.06,389.0
1801.96,384.0
1806.85,410.0
1811.73,353.0
1816.59,345.0
1821.43,342.0
1826.26,353.0
1831.07,357.0
1835.87,338.0
1840.65,353.0
1845.42,342.0
1850.17,372.0
1854.9,369.0
1859.62,331.0
1864.33,293.0
1869.02,277.0
1873.69,304.0
1878.35,299.0
1882.99,285.0
1887.62,300.0
1892.23,307.0
1893.38,277.0