File: mAb_dilution_wasatch_plastic/95% Raw + 5% Buffer_data.csv
Wavenumber,Intensities
282.29,6079.0
290.7,5593.0
299.09,5262.0
307.47,5130.0
315.83,5039.0
324.18,5057.0
332.51,5035.0
340.83,5031.0
349.13,4902.0
357.42,4848.0
365.69,4982.0
373.95,5103.0
382.19,5399.0
390.42,5563.0
398.63,5877.0
406.83,6224.0
415.01,5847.0
423.18,5498.0
431.33,5247.0
439.47,5258.0
447.59,5030.0
455.7,4856.0
463.79,4660.0
471.86,4506.0
479.93,4477.0
487.97,4501.0
496.0,4365.0
504.02,4184.0
512.02,4052.0
520.01,4033.0
527.98,4059.0
535.93,4401.0
543.87,4419.0
551.8,4260.0
559.71,4057.0
567.6,3994.0
575.48,3812.0
583.34,3721.0
591.19,3660.0
599.03,3713.0
606.84,3723.0
614.65,5205.0
622.43,9678.0
630.21,4295.0
637.96,3386.0
645.71,3224.0
653.43,3045.0
661.14,3003.0
668.84,2965.0
676.52,2882.0
684.19,2901.0
691.83,2863.0
699.47,3091.0
707.09,3040.0
714.69,2847.0
722.28,2894.0
729.85,3121.0
737.41,3825.0
744.95,4138.0
752.48,4813.0
759.99,5160.0
767.49,4875.0
774.97,4484.0
782.44,4967.0
789.89,6755.0
797.32,7510.0
804.74,5479.0
812.14,4184.0
819.53,3361.0
826.9,3140.0
834.26,3356.0
841.6,3713.0
848.93,3387.0
856.24,3200.0
863.54,3068.0
870.82,2947.0
878.08,2916.0
885.33,2897.0
892.57,2867.0
899.79,3241.0
906.99,3292.0
914.18,2901.0
921.35,2563.0
928.51,2445.0
935.65,2483.0
942.77,2570.0
949.88,2514.0
956.98,2619.0
964.06,2794.0
971.12,2881.0
978.17,3377.0
985.2,4993.0
992.22,9466.0
999.22,39271.0
1006.21,22299.0
1013.18,5286.0
1020.13,4591.0
1027.07,10370.0
1034.0,12211.0
1040.91,5699.0
1047.8,3770.0
1054.68,3360.0
1061.54,3516.0
1068.39,3797.0
1075.22,3664.0
1082.04,3497.0
1088.84,3372.0
1095.62,3387.0
1102.39,3070.0
1109.15,2519.0
1115.88,2278.0
1122.61,2026.0
1129.31,1898.0
1136.01,2024.0
1142.68,2529.0
1149.34,4150.0
1155.99,6720.0
1162.62,4275.0
1169.23,3718.0
1175.83,5448.0
1182.41,8304.0
1188.98,7138.0
1195.53,7571.0
1202.07,7487.0
1208.59,5566.0
1215.1,3873.0
1221.59,3252.0
1228.06,2814.0
1234.52,2491.0
1240.96,2389.0
1247.39,2305.0
1253.8,2225.0
1260.2,2145.0
1266.58,2098.0
1272.95,2081.0
1279.3,2117.0
1285.63,2172.0
1291.95,2259.0
1298.25,2452.0
1304.54,2589.0
1310.81,2730.0
1317.07,2962.0
1323.31,3374.0
1329.54,3353.0
1335.75,3011.0
1341.94,2517.0
1348.12,2223.0
1354.29,2104.0
1360.43,2048.0
1366.57,2035.0
1372.68,1906.0
1378.78,1697.0
1384.87,1458.0
1390.94,1352.0
1397.0,1284.0
1403.04,1261.0
1409.06,1219.0
1415.07,1183.0
1421.06,1238.0
1427.04,1215.0
1433.0,1485.0
1438.94,2115.0
1444.88,2730.0
1450.79,3159.0
1456.69,2300.0
1462.57,1405.0
1468.44,1211.0
1474.3,1086.0
1480.13,1101.0
1485.95,1037.0
1491.76,1157.0
1497.55,1065.0
1503.33,969.0
1509.09,946.0
1514.83,961.0
1520.56,953.0
1526.27,979.0
1531.97,960.0
1537.65,984.0
1543.32,991.0
1548.97,1040.0
1554.61,1139.0
1560.22,1083.0
1565.83,1188.0
1571.42,1374.0
1576.99,1967.0
1582.55,3654.0
1588.09,2766.0
1593.62,2862.0
1599.13,5403.0
1604.63,6500.0
1610.11,3292.0
1615.57,1944.0
1621.02,1557.0
1626.45,1427.0
1631.87,1298.0
1637.27,1306.0
1642.66,1241.0
1648.03,1191.0
1653.39,1189.0
1658.73,1146.0
1664.05,1112.0
1669.36,1086.0
1674.66,1071.0
1679.94,1010.0
1685.2,867.0
1690.45,828.0
1695.68,797.0
1700.89,706.0
1706.1,688.0
1711.28,600.0
1716.45,603.0
1721.6,570.0
1726.74,573.0
1731.87,551.0
1736.97,516.0
1742.07,475.0
1747.14,536.0
1752.2,497.0
1757.25,436.0
1762.28,444.0
1767.29,406.0
1772.29,410.0
1777.28,395.0
1782.25,410.0
1787.2,370.0
1792.14,382.0
1797.06,370.0
1801.96,336.0
1806.85,398.0
1811.73,383.0
1816.59,322.0
1821.43,342.0
1826.26,363.0
1831.07,358.0
1835.87,334.0
1840.65,330.0
1845.42,334.0
1850.17,365.0
1854.9,315.0
1859.62,289.0
1864.33,289.0
1869.02,247.0
1873.69,293.0
1878.35,292.0
1882.99,285.0
1887.62,271.0
1892.23,307.0
1893.38,273.0