File: mAb_dilution_wasatch_plastic/Empty_96_well_plate_data.csv
Wavenumber,Intensities
282.29,2752.0
290.69,2585.0
299.08,2805.0
307.46,2893.0
315.83,2642.0
324.17,2600.0
332.51,2733.0
340.82,2676.0
349.13,2748.0
357.41,2752.0
365.69,2870.0
373.94,3064.0
382.19,2802.0
390.41,2654.0
398.63,3143.0
406.82,2995.0
415.01,2889.0
423.17,2878.0
431.33,2832.0
439.46,2745.0
447.59,2927.0
455.69,2870.0
463.78,2843.0
471.86,2505.0
479.92,2688.0
487.97,2794.0
496.0,2790.0
504.02,2585.0
512.02,2585.0
520.0,2338.0
527.97,2357.0
535.93,2411.0
543.87,2308.0
551.79,2395.0
559.7,2331.0
567.6,2198.0
575.48,2270.0
583.34,2171.0
591.19,2373.0
599.02,2354.0
606.84,2392.0
614.64,2574.0
622.43,3367.0
630.2,2346.0
637.96,2342.0
645.7,2209.0
653.43,2221.0
661.14,2346.0
668.84,2209.0
676.52,2168.0
684.18,1981.0
691.83,2122.0
699.47,2281.0
707.09,2532.0
714.69,2145.0
722.28,2175.0
729.85,2293.0
737.41,2384.0
744.95,2243.0
752.48,2448.0
759.99,2581.0
767.49,2794.0
774.97,2430.0
782.43,2452.0
789.88,3010.0
797.32,3086.0
804.74,2821.0
812.14,2441.0
819.53,2392.0
826.9,2308.0
834.26,2289.0
841.6,2323.0
848.93,2392.0
856.24,2373.0
863.54,2190.0
870.82,2262.0
878.08,2251.0
885.33,2168.0
892.56,2221.0
899.78,2562.0
906.99,2160.0
914.17,2953.0
921.35,2057.0
928.5,2224.0
935.64,2118.0
942.77,2187.0
949.88,2274.0
956.98,2243.0
964.05,2107.0
971.12,2380.0
978.17,2160.0
985.2,2669.0
992.22,3348.0
999.22,8770.0
1006.21,5729.0
1013.18,2680.0
1020.13,2703.0
1027.07,3542.0
1034.0,4168.0
1040.91,2843.0
1047.8,2380.0
1054.68,2441.0
1061.54,2373.0
1068.39,2418.0
1075.22,2354.0
1082.03,2399.0
1088.83,2414.0
1095.62,2266.0
1102.39,2338.0
1109.14,2168.0
1115.88,2281.0
1122.6,2179.0
1129.31,2202.0
1136.0,2076.0
1142.68,2137.0
1149.34,2570.0
1155.99,3185.0
1162.61,2576.0
1169.23,2513.0
1175.83,2680.0
1182.41,3079.0
1188.98,3090.0
1195.53,3033.0
1202.07,3166.0
1208.59,2813.0
1215.09,2426.0
1221.58,2388.0
1228.06,2285.0
1234.52,2380.0
1240.96,2247.0
1247.39,2251.0
1253.8,2224.0
1260.2,2251.0
1266.58,2160.0
1272.94,2243.0
1279.29,2137.0
1285.63,2061.0
1291.95,2281.0
1298.25,2236.0
1304.54,2141.0
1310.81,2547.0
1317.07,2297.0
1323.31,2430.0
1329.53,2380.0
1335.75,2483.0
1341.94,2217.0
1348.12,2217.0
1354.28,2152.0
1360.43,2122.0
1366.56,2331.0
1372.68,2168.0
1378.78,2069.0
1384.87,2171.0
1390.94,2084.0
1396.99,2137.0
1403.03,2262.0
1409.06,2065.0
1415.06,1826.0
1421.06,2092.0
1427.03,2019.0
1433.0,2126.0
1438.94,2187.0
1444.87,2308.0
1450.79,2327.0
1456.69,2111.0
1462.57,2095.0
1468.44,2004.0
1474.29,2095.0
1480.13,2035.0
1485.95,2019.0
1491.76,2050.0
1497.55,1962.0
1503.32,1909.0
1509.08,1944.0
1514.83,2019.0
1520.56,1944.0
1526.27,2149.0
1531.97,2035.0
1537.65,2050.0
1543.32,2168.0
1548.97,2012.0
1554.6,2095.0
1560.22,1970.0
1565.83,1947.0
1571.42,2111.0
1576.99,2346.0
1582.55,2756.0
1588.09,2194.0
1593.62,2407.0
1599.13,2885.0
1604.62,3109.0
1610.1,2517.0
1615.57,2179.0
1621.02,1951.0
1626.45,1925.0
1631.87,1898.0
1637.27,2080.0
1642.66,2065.0
1648.03,2016.0
1653.39,2122.0
1658.73,1913.0
1664.05,1955.0
1669.36,1864.0
1674.65,1978.0
1679.93,1981.0
1685.2,1833.0
1690.44,2152.0
1695.68,1921.0
1700.89,1932.0
1706.09,1970.0
1711.28,1909.0
1716.45,1807.0
1721.6,1940.0
1726.74,1981.0
1731.86,1955.0
1736.97,1962.0
1742.06,1962.0
1747.14,1928.0
1752.2,1887.0
1757.25,1875.0
1762.28,2092.0
1767.29,1833.0
1772.29,1868.0
1777.27,2069.0
1782.24,1845.0
1787.2,1951.0
1792.13,2012.0
1797.05,1852.0
1801.96,1940.0
1806.85,2118.0
1811.73,1928.0
1816.59,1860.0
1821.43,1989.0
1826.26,1962.0
1831.07,1902.0
1835.87,1833.0
1840.65,1993.0
1845.42,1974.0
1850.17,1845.0
1854.9,1951.0
1859.62,1940.0
1864.33,1962.0
1869.01,1845.0
1873.69,1845.0
1878.35,1780.0
1882.99,1955.0
1887.61,1936.0
1892.23,2084.0
1893.38,1776.0