File: mAb_dilution_wasatch_plastic/Equlibration Buffer_data.csv
Wavenumber,Intensities
282.29,8186.67
290.69,7580.67
299.08,7490.67
307.46,7334.0
315.83,7007.33
324.17,6893.0
332.51,6986.0
340.82,6931.67
349.13,6892.0
357.41,6927.67
365.69,7113.67
373.94,7388.33
382.19,7284.33
390.41,7284.33
398.63,7813.67
406.82,7922.67
415.01,7665.33
423.17,7435.0
431.33,7316.33
439.46,7130.33
447.59,7248.0
455.69,7080.67
463.78,6899.67
471.86,6495.33
479.92,6640.0
487.97,6736.67
496.0,6668.0
504.02,6363.0
512.02,6216.33
520.0,5988.33
527.97,6049.0
535.93,6255.67
543.87,6196.0
551.79,6133.0
559.7,5967.0
567.6,5735.33
575.48,5701.0
583.34,5529.0
591.19,5669.33
599.02,5657.0
606.84,5674.67
614.64,6519.0
622.43,9717.0
630.2,5913.67
637.96,5423.0
645.7,5139.0
653.43,5064.33
661.14,5165.67
668.84,4990.0
676.52,4889.67
684.18,4636.67
691.83,4772.0
699.47,5011.33
707.09,5291.0
714.69,4787.33
722.28,4730.33
729.85,4952.0
737.41,5381.0
744.95,5525.33
752.48,5897.33
759.99,6229.0
767.49,6257.0
774.97,5674.67
782.43,5998.33
789.88,7346.33
797.32,7793.33
804.74,6533.67
812.14,5498.67
819.53,4989.33
826.9,4682.33
834.26,4829.0
841.6,5015.0
848.93,4877.0
856.24,4787.33
863.54,4546.67
870.82,4514.0
878.08,4439.0
885.33,4274.67
892.56,4321.67
899.78,4764.67
906.99,4434.33
914.17,4978.0
921.35,3909.0
928.5,3971.0
935.64,3835.67
942.77,3962.33
949.88,4063.33
956.98,4054.67
964.05,4006.33
971.12,4328.0
978.17,4381.33
985.2,5760.67
992.22,8676.67
999.22,28868.33
1006.21,17795.33
1013.18,5802.33
1020.13,5372.0
1027.07,9044.67
1034.0,10792.67
1040.91,6115.0
1047.8,4677.33
1054.68,4534.0
1061.54,4471.67
1068.39,4682.33
1075.22,4619.0
1082.03,4478.33
1088.83,4487.67
1095.62,4319.33
1102.39,4221.67
1109.14,3820.33
1115.88,3767.33
1122.6,3510.67
1129.31,3507.67
1136.0,3419.0
1142.68,3715.33
1149.34,4993.67
1155.99,6818.67
1162.61,5009.33
1169.23,4711.33
1175.83,5703.67
1182.41,7532.33
1188.98,6960.67
1195.53,7073.0
1202.07,7144.0
1208.59,5958.0
1215.09,4690.0
1221.58,4249.33
1228.06,3941.67
1234.52,3866.0
1240.96,3695.0
1247.39,3664.67
1253.8,3551.0
1260.2,3570.67
1266.58,3423.0
1272.94,3519.33
1279.29,3427.0
1285.63,3395.33
1291.95,3682.33
1298.25,3693.67
1304.54,3653.67
1310.81,4088.67
1317.07,3962.33
1323.31,4295.33
1329.53,4200.0
1335.75,4125.67
1341.94,3664.67
1348.12,3480.0
1354.28,3389.0
1360.43,3337.0
1366.56,3521.67
1372.68,3316.67
1378.78,3091.67
1384.87,3094.0
1390.94,2894.0
1396.99,2937.0
1403.03,3058.67
1409.06,2862.33
1415.06,2600.33
1421.06,2843.33
1427.03,2828.33
1433.0,3001.67
1438.94,3308.0
1444.87,3753.33
1450.79,3980.0
1456.69,3346.0
1462.57,2947.0
1468.44,2754.67
1474.29,2796.67
1480.13,2733.33
1485.95,2743.33
1491.76,2791.67
1497.55,2691.33
1503.32,2585.33
1509.08,2605.33
1514.83,2704.0
1520.56,2638.67
1526.27,2849.67
1531.97,2729.33
1537.65,2748.0
1543.32,2894.33
1548.97,2752.0
1554.6,2815.33
1560.22,2761.33
1565.83,2752.33
1571.42,3048.33
1576.99,3543.33
1582.55,4700.0
1588.09,3799.0
1593.62,4031.67
1599.13,5632.67
1604.62,6290.0
1610.1,4333.33
1615.57,3452.0
1621.02,3104.0
1626.45,3081.33
1631.87,3029.67
1637.27,3186.33
1642.66,3123.0
1648.03,3052.33
1653.39,3133.33
1658.73,2884.0
1664.05,2898.0
1669.36,2740.67
1674.65,2818.0
1679.93,2776.33
1685.2,2581.33
1690.44,2851.67
1695.68,2523.33
1700.89,2486.33
1706.09,2484.0
1711.28,2399.0
1716.45,2234.33
1721.6,2357.33
1726.74,2357.33
1731.86,2303.0
1736.97,2277.67
1742.06,2268.67
1747.14,2243.33
1752.2,2214.33
1757.25,2157.33
1762.28,2342.0
1767.29,2085.33
1772.29,2067.67
1777.27,2284.0
1782.24,2051.0
1787.2,2158.67
1792.13,2179.0
1797.05,2085.33
1801.96,2116.33
1806.85,2292.67
1811.73,2111.67
1816.59,2068.67
1821.43,2178.67
1826.26,2129.67
1831.07,2070.0
1835.87,2011.67
1840.65,2136.0
1845.42,2105.67
1850.17,1992.67
1854.9,2093.0
1859.62,2080.0
1864.33,2108.0
1869.01,1962.0
1873.69,1976.33
1878.35,1919.33
1882.99,2099.33
1887.61,2088.0
1892.23,2266.0
1893.38,1914.33