File: mAb_degraded_wasatch_plastic/0% Raw + 100% Graded Sample, 200mW, 2000ms_data.csv
Wavenumber,Intensities
282.29,806.33
290.7,755.33
299.09,506.33
307.47,423.33
315.83,586.33
324.18,649.0
332.51,586.0
340.83,597.67
349.13,520.33
357.42,473.0
365.69,435.67
373.95,467.33
382.19,712.67
390.42,894.0
398.63,791.0
406.83,1070.67
415.01,900.67
423.18,708.0
431.33,637.67
439.47,640.0
447.59,404.67
455.7,364.33
463.79,317.67
471.86,416.0
479.93,313.67
487.97,264.33
496.0,178.0
504.02,269.67
512.02,208.33
520.01,324.33
527.98,321.67
535.93,472.33
543.87,527.67
551.8,431.33
559.71,391.67
567.6,464.67
575.48,359.67
583.34,357.0
591.19,222.33
599.03,204.67
606.84,238.33
614.65,965.33
622.43,2983.0
630.21,614.0
637.96,189.33
645.71,119.33
653.43,66.33
661.14,-41.0
668.84,27.33
676.52,29.67
684.19,150.67
691.83,59.33
699.47,77.0
707.09,-90.67
714.69,36.33
722.28,77.33
729.85,121.0
737.41,459.67
744.95,767.67
752.48,975.0
759.99,1100.33
767.49,858.0
774.97,889.67
782.44,1112.67
789.89,1752.0
797.32,2216.33
804.74,1184.67
812.14,706.0
819.53,337.0
826.9,259.33
834.26,371.67
841.6,561.67
848.93,352.0
856.24,271.67
863.54,306.67
870.82,242.0
878.08,239.33
885.33,252.33
892.57,274.33
899.79,289.67
906.99,549.33
914.18,-147.67
921.35,221.33
928.51,43.0
935.65,147.67
942.77,140.0
949.88,79.0
956.98,164.33
964.06,370.67
971.12,242.67
978.17,656.67
985.2,1282.0
992.22,3275.67
999.22,16410.0
1006.21,9217.67
1013.18,1425.67
1020.13,1058.33
1027.07,3667.0
1034.0,4465.33
1040.91,1636.0
1047.8,814.67
1054.68,552.0
1061.54,665.67
1068.39,802.67
1075.22,791.33
1082.04,606.0
1088.84,556.0
1095.62,653.33
1102.39,531.0
1109.15,275.67
1115.88,55.67
1122.61,-42.33
1129.31,-104.0
1136.01,58.0
1142.68,311.33
1149.34,949.33
1155.99,2035.0
1162.62,1044.0
1169.23,799.0
1175.83,1589.33
1182.41,3027.0
1188.98,2304.33
1195.53,2590.0
1202.07,2474.0
1208.59,1608.0
1215.1,886.33
1221.59,557.33
1228.06,411.67
1234.52,164.33
1240.96,127.0
1247.39,139.33
1253.8,108.67
1260.2,74.67
1266.58,119.33
1272.95,58.0
1279.3,132.67
1285.63,163.67
1291.95,119.0
1298.25,270.67
1304.54,418.0
1310.81,273.0
1317.07,558.67
1323.31,646.67
1329.54,707.67
1335.75,476.0
1341.94,315.0
1348.12,183.33
1354.29,145.67
1360.43,141.67
1366.57,54.33
1372.68,77.0
1378.78,4.0
1384.87,-176.33
1390.94,-185.67
1397.0,-259.0
1403.04,-340.33
1409.06,-259.33
1415.07,-135.33
1421.06,-233.67
1427.04,-221.67
1433.0,-105.0
1438.94,186.0
1444.88,495.0
1450.79,702.33
1456.69,356.33
1462.57,-158.0
1468.44,-207.33
1474.3,-305.0
1480.13,-245.33
1485.95,-302.33
1491.76,-208.33
1497.55,-236.67
1503.33,-241.33
1509.09,-274.33
1514.83,-292.67
1520.56,-283.0
1526.27,-390.33
1531.97,-312.0
1537.65,-308.67
1543.32,-381.0
1548.97,-268.67
1554.61,-249.0
1560.22,-248.33
1565.83,-156.33
1571.42,-146.0
1576.99,97.0
1582.55,873.67
1588.09,627.33
1593.62,564.33
1599.13,1813.33
1604.63,2291.33
1610.11,717.67
1615.57,123.0
1621.02,-11.0
1626.45,-93.0
1631.87,-157.33
1637.27,-287.33
1642.66,-251.0
1648.03,-254.0
1653.39,-359.33
1658.73,-249.67
1664.05,-286.33
1669.36,-215.0
1674.66,-275.67
1679.94,-326.33
1685.2,-282.67
1690.45,-457.33
1695.68,-323.0
1700.89,-340.33
1706.1,-384.33
1711.28,-370.33
1716.45,-315.33
1721.6,-360.33
1726.74,-418.0
1731.87,-398.33
1736.97,-440.67
1742.07,-429.33
1747.14,-388.0
1752.2,-386.0
1757.25,-379.0
1762.28,-502.33
1767.29,-366.33
1772.29,-365.33
1777.28,-524.0
1782.25,-356.0
1787.2,-443.67
1792.14,-447.33
1797.06,-395.67
1801.96,-438.0
1806.85,-518.33
1811.73,-437.0
1816.59,-395.0
1821.43,-473.33
1826.26,-445.33
1831.07,-424.33
1835.87,-404.0
1840.65,-476.33
1845.42,-466.0
1850.17,-373.33
1854.9,-442.67
1859.62,-460.33
1864.33,-477.67
1869.02,-433.0
1873.69,-413.33
1878.35,-378.0
1882.99,-475.33
1887.62,-498.0
1892.23,-573.33
1893.38,-382.33