File: mAb_degraded_wasatch_plastic/10% Raw + 90% Graded Sample, 200mw,2000ms_data.csv
Wavenumber,Intensities
282.29,-51.0
290.7,-38.33
299.09,-194.0
307.47,-253.67
315.83,-114.67
324.18,-47.0
332.51,-117.67
340.83,-114.0
349.13,-157.0
357.42,-186.33
365.69,-227.67
373.95,-254.0
382.19,-49.33
390.42,42.0
398.63,-148.0
406.83,36.33
415.01,-18.33
423.18,-99.33
431.33,-94.0
439.47,-87.67
447.59,-247.33
455.7,-241.67
463.79,-269.67
471.86,-142.33
479.93,-234.0
487.97,-291.0
496.0,-326.0
504.02,-268.0
512.02,-306.0
520.01,-195.67
527.98,-244.0
535.93,-149.0
543.87,-140.67
551.8,-180.33
559.71,-193.0
567.6,-101.0
575.48,-192.0
583.34,-147.0
591.19,-278.33
599.03,-290.33
606.84,-273.0
614.65,-14.0
622.43,589.67
630.21,-131.0
637.96,-301.33
645.71,-292.67
653.43,-327.0
661.14,-389.67
668.84,-323.0
676.52,-329.0
684.19,-203.0
691.83,-281.33
699.47,-316.33
707.09,-479.33
714.69,-305.33
722.28,-288.33
729.85,-297.67
737.41,-192.67
744.95,-6.67
752.48,29.67
759.99,52.33
767.49,-113.33
774.97,7.67
782.44,109.0
789.89,239.33
797.32,444.33
804.74,33.0
812.14,-77.33
819.53,-228.67
826.9,-222.0
834.26,-225.67
841.6,-129.33
848.93,-248.0
856.24,-257.67
863.54,-216.0
870.82,-243.67
878.08,-246.67
885.33,-178.33
892.57,-210.0
899.79,-318.0
906.99,-93.67
914.18,-632.33
921.35,-193.33
928.51,-314.0
935.65,-239.67
942.77,-262.67
949.88,-337.67
956.98,-284.0
964.06,-147.0
971.12,-296.67
978.17,-17.0
985.2,82.0
992.22,783.67
999.22,5160.0
1006.21,2820.0
1013.18,177.67
1020.13,7.67
1027.07,936.0
1034.0,1102.67
1040.91,213.67
1047.8,-16.67
1054.68,-173.67
1061.54,-82.0
1068.39,-49.0
1075.22,-30.0
1082.04,-126.67
1088.84,-163.0
1095.62,-80.67
1102.39,-149.0
1109.15,-221.0
1115.88,-327.67
1122.61,-348.33
1129.31,-392.33
1136.01,-264.67
1142.68,-181.0
1149.34,-33.33
1155.99,254.0
1162.62,27.67
1169.23,-64.0
1175.83,224.0
1182.41,743.67
1188.98,445.67
1195.53,593.67
1202.07,515.0
1208.59,179.67
1215.1,-2.33
1221.59,-155.33
1228.06,-187.0
1234.52,-321.33
1240.96,-310.67
1247.39,-313.67
1253.8,-298.67
1260.2,-324.33
1266.58,-260.33
1272.95,-318.0
1279.3,-252.0
1285.63,-241.33
1291.95,-320.0
1298.25,-236.33
1304.54,-140.67
1310.81,-311.67
1317.07,-132.0
1323.31,-123.0
1329.54,-81.0
1335.75,-207.67
1341.94,-211.67
1348.12,-262.0
1354.29,-267.0
1360.43,-268.0
1366.57,-352.0
1372.68,-304.33
1378.78,-289.33
1384.87,-418.33
1390.94,-385.67
1397.0,-442.0
1403.04,-520.67
1409.06,-434.33
1415.07,-288.67
1421.06,-404.0
1427.04,-417.33
1433.0,-371.67
1438.94,-263.33
1444.88,-146.33
1450.79,-81.0
1456.69,-155.0
1462.57,-407.67
1468.44,-380.67
1474.3,-450.67
1480.13,-387.0
1485.95,-444.67
1491.76,-392.0
1497.55,-387.0
1503.33,-388.0
1509.09,-413.67
1514.83,-437.67
1520.56,-415.0
1526.27,-512.0
1531.97,-433.33
1537.65,-455.33
1543.32,-532.0
1548.97,-414.33
1554.61,-401.33
1560.22,-407.0
1565.83,-344.67
1571.42,-393.0
1576.99,-356.0
1582.55,-126.0
1588.09,-61.33
1593.62,-149.67
1599.13,255.33
1604.63,404.67
1610.11,-111.33
1615.57,-269.0
1621.02,-282.0
1626.45,-320.67
1631.87,-339.67
1637.27,-449.67
1642.66,-418.33
1648.03,-415.67
1653.39,-499.67
1658.73,-392.67
1664.05,-410.0
1669.36,-372.33
1674.66,-414.33
1679.94,-445.33
1685.2,-398.67
1690.45,-549.33
1695.68,-417.67
1700.89,-426.67
1706.1,-463.0
1711.28,-448.67
1716.45,-399.33
1721.6,-436.33
1726.74,-477.67
1731.87,-444.33
1736.97,-494.0
1742.07,-483.33
1747.14,-442.67
1752.2,-450.67
1757.25,-440.67
1762.28,-565.67
1767.29,-412.0
1772.29,-418.67
1777.28,-578.33
1782.25,-418.0
1787.2,-481.0
1792.14,-497.67
1797.06,-441.33
1801.96,-487.33
1806.85,-565.0
1811.73,-484.67
1816.59,-449.33
1821.43,-501.0
1826.26,-480.0
1831.07,-454.67
1835.87,-449.67
1840.65,-520.67
1845.42,-503.67
1850.17,-415.67
1854.9,-479.67
1859.62,-486.67
1864.33,-515.0
1869.02,-475.0
1873.69,-447.67
1878.35,-409.33
1882.99,-510.0
1887.62,-515.0
1892.23,-601.0
1893.38,-414.33