File: mAb_degraded_wasatch_plastic/20% Raw + 80% Graded Sample, 200mW,2000ms_data.csv
Wavenumber,Intensities
282.29,985.67
290.7,924.0
299.09,658.0
307.47,576.0
315.83,715.67
324.18,790.67
332.51,715.33
340.83,706.33
349.13,640.67
357.42,613.33
365.69,590.0
373.95,566.33
382.19,856.0
390.42,1011.67
398.63,904.67
406.83,1161.0
415.01,1004.67
423.18,827.0
431.33,768.0
439.47,762.67
447.59,555.0
455.7,490.67
463.79,447.0
471.86,538.67
479.93,441.67
487.97,392.33
496.0,318.0
504.02,392.67
512.02,325.67
520.01,459.67
527.98,441.67
535.93,601.67
543.87,636.67
551.8,563.0
559.71,511.67
567.6,580.0
575.48,472.33
583.34,477.33
591.19,322.67
599.03,317.33
606.84,364.67
614.65,1027.67
622.43,2991.33
630.21,710.0
637.96,292.67
645.71,227.0
653.43,166.0
661.14,83.0
668.84,133.67
676.52,132.0
684.19,253.0
691.83,175.67
699.47,201.0
707.09,2.0
714.69,159.33
722.28,158.67
729.85,217.33
737.41,537.33
744.95,861.33
752.48,1039.67
759.99,1140.67
767.49,903.67
774.97,943.0
782.44,1170.0
789.89,1758.0
797.32,2189.67
804.74,1212.67
812.14,789.33
819.53,401.67
826.9,317.0
834.26,431.0
841.6,614.33
848.93,409.0
856.24,335.0
863.54,366.33
870.82,326.0
878.08,302.67
885.33,338.0
892.57,345.0
899.79,342.67
906.99,594.67
914.18,-85.33
921.35,289.33
928.51,126.33
935.65,209.67
942.77,206.0
949.88,157.33
956.98,221.67
964.06,427.67
971.12,289.67
978.17,714.67
985.2,1246.33
992.22,3140.33
999.22,15563.33
1006.21,9157.0
1013.18,1457.0
1020.13,1042.67
1027.07,3557.0
1034.0,4374.33
1040.91,1601.67
1047.8,822.67
1054.68,575.67
1061.54,684.67
1068.39,821.33
1075.22,814.0
1082.04,634.0
1088.84,567.33
1095.62,672.33
1102.39,539.67
1109.15,303.67
1115.88,97.33
1122.61,17.33
1129.31,-53.33
1136.01,92.33
1142.68,331.67
1149.34,946.33
1155.99,1977.67
1162.62,1047.67
1169.23,787.67
1175.83,1547.67
1182.41,2942.33
1188.98,2240.0
1195.53,2523.33
1202.07,2422.0
1208.59,1581.0
1215.1,885.0
1221.59,557.33
1228.06,433.0
1234.52,194.0
1240.96,167.33
1247.39,163.67
1253.8,145.33
1260.2,102.33
1266.58,144.67
1272.95,113.67
1279.3,164.33
1285.63,196.33
1291.95,152.0
1298.25,283.33
1304.54,438.0
1310.81,267.0
1317.07,560.67
1323.31,664.0
1329.54,687.33
1335.75,479.67
1341.94,323.67
1348.12,214.0
1354.29,180.0
1360.43,153.33
1366.57,53.0
1372.68,84.67
1378.78,43.0
1384.87,-163.67
1390.94,-151.0
1397.0,-220.0
1403.04,-306.67
1409.06,-233.67
1415.07,-85.0
1421.06,-197.67
1427.04,-212.0
1433.0,-93.67
1438.94,186.0
1444.88,492.67
1450.79,696.0
1456.69,348.0
1462.57,-130.33
1468.44,-180.67
1474.3,-263.0
1480.13,-216.0
1485.95,-267.0
1491.76,-178.0
1497.55,-207.33
1503.33,-216.33
1509.09,-251.67
1514.83,-279.67
1520.56,-254.33
1526.27,-370.0
1531.97,-293.67
1537.65,-285.67
1543.32,-365.0
1548.97,-255.33
1554.61,-228.67
1560.22,-214.67
1565.83,-129.67
1571.42,-134.67
1576.99,83.0
1582.55,794.0
1588.09,603.67
1593.62,504.67
1599.13,1661.33
1604.63,2160.0
1610.11,688.67
1615.57,145.0
1621.02,1.67
1626.45,-54.33
1631.87,-98.0
1637.27,-241.0
1642.66,-216.67
1648.03,-221.33
1653.39,-319.0
1658.73,-215.67
1664.05,-244.67
1669.36,-211.0
1674.66,-246.67
1679.94,-285.67
1685.2,-247.0
1690.45,-428.0
1695.68,-302.33
1700.89,-323.0
1706.1,-371.67
1711.28,-356.33
1716.45,-314.0
1721.6,-357.33
1726.74,-403.0
1731.87,-375.67
1736.97,-428.0
1742.07,-421.33
1747.14,-383.0
1752.2,-389.67
1757.25,-379.67
1762.28,-506.0
1767.29,-346.67
1772.29,-364.33
1777.28,-525.0
1782.25,-350.67
1787.2,-421.67
1792.14,-438.67
1797.06,-380.33
1801.96,-416.33
1806.85,-514.33
1811.73,-433.33
1816.59,-396.33
1821.43,-464.67
1826.26,-430.33
1831.07,-420.67
1835.87,-396.33
1840.65,-474.0
1845.42,-463.33
1850.17,-373.33
1854.9,-440.0
1859.62,-458.0
1864.33,-470.0
1869.02,-426.0
1873.69,-399.67
1878.35,-376.33
1882.99,-483.0
1887.62,-481.33
1892.23,-569.33
1893.38,-377.33