File: mAb_degraded_wasatch_plastic/30% Raw + 70% Graded Sample, 200mW, 2000ms_data.csv
Wavenumber,Intensities
282.29,1616.0
290.7,1402.0
299.09,1055.67
307.47,915.67
315.83,1130.67
324.18,1246.33
332.51,1191.67
340.83,1153.67
349.13,1015.0
357.42,945.0
365.69,943.0
373.95,1068.33
382.19,1511.67
390.42,1886.0
398.63,1941.33
406.83,2438.0
415.01,1981.67
423.18,1508.0
431.33,1269.0
439.47,1204.33
447.59,895.67
455.7,688.0
463.79,540.67
471.86,627.0
479.93,480.67
487.97,440.33
496.0,385.0
504.02,472.33
512.02,454.67
520.01,631.67
527.98,719.0
535.93,1088.0
543.87,1221.0
551.8,1062.67
559.71,972.67
567.6,972.33
575.48,811.0
583.34,752.67
591.19,579.33
599.03,576.33
606.84,734.0
614.65,2572.33
622.43,8034.33
630.21,1666.0
637.96,582.0
645.71,318.0
653.43,188.67
661.14,80.33
668.84,131.33
676.52,121.67
684.19,253.33
691.83,204.67
699.47,389.67
707.09,167.0
714.69,220.0
722.28,267.33
729.85,516.0
737.41,1443.33
744.95,2138.33
752.48,2741.67
759.99,3119.67
767.49,2718.67
774.97,2479.33
782.44,3146.67
789.89,5075.33
797.32,6154.67
804.74,3525.33
812.14,2148.67
819.53,1148.33
826.9,870.33
834.26,1222.0
841.6,1745.0
848.93,1282.33
856.24,1033.33
863.54,1075.0
870.82,988.67
878.08,939.0
885.33,985.0
892.57,1049.0
899.79,1294.67
906.99,1691.0
914.18,628.33
921.35,811.33
928.51,574.33
935.65,672.0
942.77,759.0
949.88,749.33
956.98,879.0
964.06,1269.33
971.12,1198.0
978.17,2066.33
985.2,3937.0
992.22,9431.67
999.22,45371.33
1006.21,26051.0
1013.18,4352.33
1020.13,3409.67
1027.07,10424.0
1034.0,12971.33
1040.91,4986.33
1047.8,2622.0
1054.68,2069.33
1061.54,2237.67
1068.39,2593.33
1075.22,2499.67
1082.04,2185.33
1088.84,2068.33
1095.62,2177.33
1102.39,1846.67
1109.15,1160.67
1115.88,730.33
1122.61,435.67
1129.31,330.33
1136.01,587.33
1142.68,1233.0
1149.34,3180.0
1155.99,6151.67
1162.62,3388.67
1169.23,2677.33
1175.83,4803.0
1182.41,8504.67
1188.98,6892.33
1195.53,7534.33
1202.07,7320.0
1208.59,4955.0
1215.1,2924.67
1221.59,2032.67
1228.06,1605.0
1234.52,1077.33
1240.96,953.33
1247.39,903.33
1253.8,842.67
1260.2,763.33
1266.58,783.67
1272.95,750.33
1279.3,809.33
1285.63,892.67
1291.95,998.67
1298.25,1293.67
1304.54,1562.67
1310.81,1464.33
1317.07,1966.0
1323.31,2327.33
1329.54,2437.67
1335.75,1965.67
1341.94,1419.0
1348.12,1081.0
1354.29,972.33
1360.43,922.33
1366.57,833.67
1372.68,847.0
1378.78,560.67
1384.87,192.67
1390.94,80.0
1397.0,-10.0
1403.04,-96.67
1409.06,-35.33
1415.07,80.0
1421.06,-61.0
1427.04,17.67
1433.0,378.67
1438.94,1126.33
1444.88,1973.33
1450.79,2475.33
1456.69,1447.33
1462.57,268.33
1468.44,30.0
1474.3,-104.0
1480.13,-70.67
1485.95,-102.33
1491.76,51.0
1497.55,19.0
1503.33,-81.67
1509.09,-129.0
1514.83,-172.0
1520.56,-155.67
1526.27,-243.33
1531.97,-155.33
1537.65,-175.0
1543.32,-237.33
1548.97,-114.33
1554.61,-61.67
1560.22,-16.0
1565.83,156.33
1571.42,332.67
1576.99,1111.0
1582.55,3360.67
1588.09,2334.67
1593.62,2313.0
1599.13,5984.67
1604.63,7174.33
1610.11,2732.67
1615.57,866.33
1621.02,417.67
1626.45,200.67
1631.87,76.67
1637.27,-143.33
1642.66,-154.67
1648.03,-169.0
1653.39,-277.0
1658.73,-185.0
1664.05,-221.67
1669.36,-167.33
1674.66,-197.33
1679.94,-251.67
1685.2,-208.0
1690.45,-381.0
1695.68,-254.33
1700.89,-288.67
1706.1,-333.33
1711.28,-317.0
1716.45,-276.33
1721.6,-317.0
1726.74,-359.67
1731.87,-329.0
1736.97,-368.67
1742.07,-359.0
1747.14,-329.67
1752.2,-320.67
1757.25,-325.33
1762.28,-469.67
1767.29,-299.33
1772.29,-303.33
1777.28,-481.0
1782.25,-306.67
1787.2,-392.67
1792.14,-394.0
1797.06,-332.33
1801.96,-373.33
1806.85,-460.0
1811.73,-366.0
1816.59,-335.67
1821.43,-415.33
1826.26,-395.33
1831.07,-372.33
1835.87,-358.0
1840.65,-447.33
1845.42,-427.67
1850.17,-330.33
1854.9,-413.67
1859.62,-408.33
1864.33,-442.33
1869.02,-395.33
1873.69,-374.33
1878.35,-336.0
1882.99,-442.33
1887.62,-457.0
1892.23,-539.33
1893.38,-350.67