File: mAb_degraded_wasatch_plastic/40% Raw + 60% Graded Sample, 200mw, 2000ms_data.csv
Wavenumber,Intensities
282.29,1868.0
290.7,1644.0
299.09,1291.0
307.47,1136.0
315.83,1276.0
324.18,1450.0
332.51,1431.0
340.83,1375.0
349.13,1242.0
357.42,1135.0
365.69,1168.0
373.95,1299.0
382.19,1777.0
390.42,2165.0
398.63,2232.0
406.83,2757.0
415.01,2293.0
423.18,1774.0
431.33,1541.0
439.47,1397.0
447.59,1085.0
455.7,881.0
463.79,719.0
471.86,751.0
479.93,645.0
487.97,600.0
496.0,543.0
504.02,630.0
512.02,604.0
520.01,764.0
527.98,896.0
535.93,1333.0
543.87,1458.0
551.8,1249.0
559.71,1118.0
567.6,1189.0
575.48,991.0
583.34,915.0
591.19,721.0
599.03,740.0
606.84,920.0
614.65,2912.0
622.43,8786.0
630.21,1914.0
637.96,732.0
645.71,456.0
653.43,312.0
661.14,197.0
668.84,254.0
676.52,251.0
684.19,361.0
691.83,338.0
699.47,554.0
707.09,316.0
714.69,349.0
722.28,411.0
729.85,679.0
737.41,1642.0
744.95,2369.0
752.48,3104.0
759.99,3547.0
767.49,3133.0
774.97,2833.0
782.44,3539.0
789.89,5726.0
797.32,7032.0
804.74,4074.0
812.14,2578.0
819.53,1360.0
826.9,1099.0
834.26,1465.0
841.6,1993.0
848.93,1542.0
856.24,1268.0
863.54,1276.0
870.82,1200.0
878.08,1147.0
885.33,1170.0
892.57,1219.0
899.79,1544.0
906.99,1921.0
914.18,851.0
921.35,965.0
928.51,736.0
935.65,846.0
942.77,934.0
949.88,919.0
956.98,994.0
964.06,1496.0
971.12,1427.0
978.17,2350.0
985.2,4442.0
992.22,10559.0
999.22,49959.0
1006.21,28693.0
1013.18,4853.0
1020.13,3930.0
1027.07,11604.0
1034.0,14265.0
1040.91,5596.0
1047.8,3018.0
1054.68,2305.0
1061.54,2540.0
1068.39,2916.0
1075.22,2848.0
1082.04,2525.0
1088.84,2358.0
1095.62,2491.0
1102.39,2081.0
1109.15,1344.0
1115.88,881.0
1122.61,564.0
1129.31,474.0
1136.01,702.0
1142.68,1435.0
1149.34,3527.0
1155.99,6826.0
1162.62,3687.0
1169.23,3034.0
1175.83,5342.0
1182.41,9412.0
1188.98,7650.0
1195.53,8376.0
1202.07,8117.0
1208.59,5566.0
1215.1,3307.0
1221.59,2348.0
1228.06,1857.0
1234.52,1283.0
1240.96,1147.0
1247.39,1116.0
1253.8,1017.0
1260.2,945.0
1266.58,951.0
1272.95,884.0
1279.3,963.0
1285.63,1014.0
1291.95,1219.0
1298.25,1549.0
1304.54,1731.0
1310.81,1735.0
1317.07,2233.0
1323.31,2611.0
1329.54,2798.0
1335.75,2179.0
1341.94,1614.0
1348.12,1295.0
1354.29,1143.0
1360.43,1074.0
1366.57,991.0
1372.68,1013.0
1378.78,722.0
1384.87,250.0
1390.94,179.0
1397.0,61.0
1403.04,-45.0
1409.06,31.0
1415.07,148.0
1421.06,9.0
1427.04,72.0
1433.0,460.0
1438.94,1279.0
1444.88,2191.0
1450.79,2764.0
1456.69,1682.0
1462.57,353.0
1468.44,122.0
1474.3,-34.0
1480.13,4.0
1485.95,-72.0
1491.76,156.0
1497.55,80.0
1503.33,-22.0
1509.09,-57.0
1514.83,-83.0
1520.56,-76.0
1526.27,-200.0
1531.97,-91.0
1537.65,-102.0
1543.32,-175.0
1548.97,-61.0
1554.61,0.0
1560.22,38.0
1565.83,227.0
1571.42,429.0
1576.99,1272.0
1582.55,3776.0
1588.09,2607.0
1593.62,2612.0
1599.13,6519.0
1604.63,7821.0
1610.11,3037.0
1615.57,1018.0
1621.02,505.0
1626.45,296.0
1631.87,132.0
1637.27,-80.0
1642.66,-95.0
1648.03,-132.0
1653.39,-224.0
1658.73,-122.0
1664.05,-186.0
1669.36,-133.0
1674.66,-155.0
1679.94,-182.0
1685.2,-145.0
1690.45,-327.0
1695.68,-205.0
1700.89,-232.0
1706.1,-307.0
1711.28,-281.0
1716.45,-243.0
1721.6,-284.0
1726.74,-289.0
1731.87,-281.0
1736.97,-361.0
1742.07,-327.0
1747.14,-277.0
1752.2,-296.0
1757.25,-293.0
1762.28,-444.0
1767.29,-278.0
1772.29,-277.0
1777.28,-452.0
1782.25,-277.0
1787.2,-340.0
1792.14,-359.0
1797.06,-325.0
1801.96,-353.0
1806.85,-437.0
1811.73,-342.0
1816.59,-312.0
1821.43,-399.0
1826.26,-364.0
1831.07,-357.0
1835.87,-334.0
1840.65,-418.0
1845.42,-421.0
1850.17,-300.0
1854.9,-406.0
1859.62,-406.0
1864.33,-402.0
1869.02,-372.0
1873.69,-338.0
1878.35,-304.0
1882.99,-421.0
1887.62,-452.0
1892.23,-545.0
1893.38,-327.0