File: mAb_degraded_wasatch_plastic/50% Raw + 50% Graded Sample, 200mw,2000ms_data.csv
Wavenumber,Intensities
282.29,1953.0
290.7,1709.0
299.09,1306.0
307.47,1215.0
315.83,1379.0
324.18,1541.0
332.51,1513.0
340.83,1420.0
349.13,1242.0
357.42,1230.0
365.69,1251.0
373.95,1326.0
382.19,1857.0
390.42,2187.0
398.63,2212.0
406.83,2761.0
415.01,2282.0
423.18,1812.0
431.33,1553.0
439.47,1507.0
447.59,1125.0
455.7,945.0
463.79,799.0
471.86,827.0
479.93,714.0
487.97,676.0
496.0,661.0
504.02,676.0
512.02,699.0
520.01,840.0
527.98,942.0
535.93,1356.0
543.87,1505.0
551.8,1321.0
559.71,1198.0
567.6,1192.0
575.48,1078.0
583.34,999.0
591.19,790.0
599.03,789.0
606.84,932.0
614.65,2912.0
622.43,8399.0
630.21,1923.0
637.96,732.0
645.71,505.0
653.43,386.0
661.14,282.0
668.84,330.0
676.52,323.0
684.19,422.0
691.83,376.0
699.47,585.0
707.09,391.0
714.69,459.0
722.28,452.0
729.85,713.0
737.41,1646.0
744.95,2378.0
752.48,3055.0
759.99,3444.0
767.49,3041.0
774.97,2814.0
782.44,3410.0
789.89,5593.0
797.32,6641.0
804.74,3953.0
812.14,2414.0
819.53,1411.0
826.9,1106.0
834.26,1454.0
841.6,1982.0
848.93,1519.0
856.24,1264.0
863.54,1288.0
870.82,1219.0
878.08,1139.0
885.33,1177.0
892.57,1260.0
899.79,1460.0
906.99,1952.0
914.18,862.0
921.35,991.0
928.51,774.0
935.65,903.0
942.77,949.0
949.88,908.0
956.98,1086.0
964.06,1469.0
971.12,1420.0
978.17,2320.0
985.2,4268.0
992.22,10134.0
999.22,47860.0
1006.21,27277.0
1013.18,4690.0
1020.13,3740.0
1027.07,11144.0
1034.0,13794.0
1040.91,5376.0
1047.8,2923.0
1054.68,2293.0
1061.54,2426.0
1068.39,2855.0
1075.22,2768.0
1082.04,2403.0
1088.84,2290.0
1095.62,2453.0
1102.39,2058.0
1109.15,1351.0
1115.88,892.0
1122.61,610.0
1129.31,478.0
1136.01,733.0
1142.68,1424.0
1149.34,3478.0
1155.99,6542.0
1162.62,3613.0
1169.23,2928.0
1175.83,5190.0
1182.41,8976.0
1188.98,7335.0
1195.53,8061.0
1202.07,7798.0
1208.59,5376.0
1215.1,3148.0
1221.59,2291.0
1228.06,1739.0
1234.52,1238.0
1240.96,1143.0
1247.39,1090.0
1253.8,1006.0
1260.2,896.0
1266.58,913.0
1272.95,866.0
1279.3,978.0
1285.63,1025.0
1291.95,1173.0
1298.25,1439.0
1304.54,1720.0
1310.81,1682.0
1317.07,2195.0
1323.31,2531.0
1329.54,2673.0
1335.75,2149.0
1341.94,1576.0
1348.12,1207.0
1354.29,1117.0
1360.43,1082.0
1366.57,998.0
1372.68,979.0
1378.78,706.0
1384.87,320.0
1390.94,183.0
1397.0,91.0
1403.04,8.0
1409.06,65.0
1415.07,178.0
1421.06,61.0
1427.04,121.0
1433.0,460.0
1438.94,1249.0
1444.88,2161.0
1450.79,2707.0
1456.69,1621.0
1462.57,383.0
1468.44,152.0
1474.3,-4.0
1480.13,15.0
1485.95,0.0
1491.76,149.0
1497.55,105.0
1503.33,-3.0
1509.09,-57.0
1514.83,-87.0
1520.56,-74.0
1526.27,-183.0
1531.97,-80.0
1537.65,-72.0
1543.32,-171.0
1548.97,-25.0
1554.61,21.0
1560.22,65.0
1565.83,222.0
1571.42,440.0
1576.99,1238.0
1582.55,3575.0
1588.09,2470.0
1593.62,2490.0
1599.13,6264.0
1604.63,7510.0
1610.11,2901.0
1615.57,986.0
1621.02,498.0
1626.45,290.0
1631.87,148.0
1637.27,-53.0
1642.66,-76.0
1648.03,-98.0
1653.39,-205.0
1658.73,-95.0
1664.05,-125.0
1669.36,-102.0
1674.66,-133.0
1679.94,-171.0
1685.2,-133.0
1690.45,-304.0
1695.68,-182.0
1700.89,-228.0
1706.1,-262.0
1711.28,-258.0
1716.45,-217.0
1721.6,-262.0
1726.74,-316.0
1731.87,-273.0
1736.97,-312.0
1742.07,-308.0
1747.14,-273.0
1752.2,-254.0
1757.25,-281.0
1762.28,-410.0
1767.29,-247.0
1772.29,-246.0
1777.28,-425.0
1782.25,-255.0
1787.2,-340.0
1792.14,-347.0
1797.06,-279.0
1801.96,-338.0
1806.85,-430.0
1811.73,-342.0
1816.59,-310.0
1821.43,-383.0
1826.26,-345.0
1831.07,-331.0
1835.87,-306.0
1840.65,-414.0
1845.42,-410.0
1850.17,-285.0
1854.9,-360.0
1859.62,-372.0
1864.33,-408.0
1869.02,-357.0
1873.69,-338.0
1878.35,-297.0
1882.99,-417.0
1887.62,-403.0
1892.23,-513.0
1893.38,-319.0