File: mAb_degraded_wasatch_plastic/60% Raw + 40% Graded Sample, 200mW,2000ms_data.csv
Wavenumber,Intensities
282.29,1815.0
290.7,1595.0
299.09,1295.0
307.47,1140.0
315.83,1307.0
324.18,1412.0
332.51,1356.0
340.83,1303.0
349.13,1223.0
357.42,1165.0
365.69,1132.0
373.95,1227.0
382.19,1705.0
390.42,2058.0
398.63,2111.0
406.83,2620.0
415.01,2103.0
423.18,1625.0
431.33,1435.0
439.47,1389.0
447.59,1116.0
455.7,884.0
463.79,772.0
471.86,842.0
479.93,695.0
487.97,664.0
496.0,593.0
504.02,668.0
512.02,653.0
520.01,790.0
527.98,907.0
535.93,1253.0
543.87,1344.0
551.8,1213.0
559.71,1114.0
567.6,1147.0
575.48,965.0
583.34,923.0
591.19,752.0
599.03,740.0
606.84,837.0
614.65,2623.0
622.43,7711.0
630.21,1743.0
637.96,744.0
645.71,486.0
653.43,353.0
661.14,254.0
668.84,319.0
676.52,304.0
684.19,444.0
691.83,383.0
699.47,528.0
707.09,316.0
714.69,387.0
722.28,397.0
729.85,641.0
737.41,1513.0
744.95,2171.0
752.48,2732.0
759.99,3095.0
767.49,2711.0
774.97,2472.0
782.44,3095.0
789.89,4963.0
797.32,5984.0
804.74,3539.0
812.14,2236.0
819.53,1265.0
826.9,1032.0
834.26,1313.0
841.6,1746.0
848.93,1382.0
856.24,1135.0
863.54,1162.0
870.82,1124.0
878.08,1075.0
885.33,1079.0
892.57,1082.0
899.79,1354.0
906.99,1693.0
914.18,752.0
921.35,889.0
928.51,653.0
935.65,782.0
942.77,850.0
949.88,790.0
956.98,941.0
964.06,1359.0
971.12,1283.0
978.17,2042.0
985.2,3835.0
992.22,9003.0
999.22,42707.0
1006.21,24441.0
1013.18,4173.0
1020.13,3360.0
1027.07,9914.0
1034.0,12207.0
1040.91,4704.0
1047.8,2616.0
1054.68,2046.0
1061.54,2179.0
1068.39,2571.0
1075.22,2449.0
1082.04,2149.0
1088.84,2055.0
1095.62,2157.0
1102.39,1831.0
1109.15,1177.0
1115.88,797.0
1122.61,564.0
1129.31,425.0
1136.01,645.0
1142.68,1295.0
1149.34,3079.0
1155.99,5873.0
1162.62,3197.0
1169.23,2613.0
1175.83,4594.0
1182.41,8034.0
1188.98,6504.0
1195.53,7161.0
1202.07,6967.0
1208.59,4826.0
1215.1,2901.0
1221.59,2037.0
1228.06,1641.0
1234.52,1090.0
1240.96,984.0
1247.39,911.0
1253.8,888.0
1260.2,771.0
1266.58,833.0
1272.95,820.0
1279.3,879.0
1285.63,931.0
1291.95,1006.0
1298.25,1298.0
1304.54,1541.0
1310.81,1454.0
1317.07,1865.0
1323.31,2307.0
1329.54,2400.0
1335.75,1952.0
1341.94,1382.0
1348.12,1075.0
1354.29,946.0
1360.43,972.0
1366.57,843.0
1372.68,843.0
1378.78,619.0
1384.87,269.0
1390.94,141.0
1397.0,65.0
1403.04,-45.0
1409.06,50.0
1415.07,148.0
1421.06,26.0
1427.04,95.0
1433.0,388.0
1438.94,1086.0
1444.88,1887.0
1450.79,2396.0
1456.69,1477.0
1462.57,281.0
1468.44,103.0
1474.3,-15.0
1480.13,4.0
1485.95,-28.0
1491.76,95.0
1497.55,65.0
1503.33,-11.0
1509.09,-68.0
1514.83,-114.0
1520.56,-68.0
1526.27,-198.0
1531.97,-95.0
1537.65,-99.0
1543.32,-163.0
1548.97,-42.0
1554.61,-11.0
1560.22,50.0
1565.83,182.0
1571.42,326.0
1576.99,1063.0
1582.55,3149.0
1588.09,2216.0
1593.62,2183.0
1599.13,5475.0
1604.63,6618.0
1610.11,2589.0
1615.57,828.0
1621.02,433.0
1626.45,269.0
1631.87,106.0
1637.27,-84.0
1642.66,-95.0
1648.03,-125.0
1653.39,-220.0
1658.73,-129.0
1664.05,-160.0
1669.36,-114.0
1674.66,-155.0
1679.94,-190.0
1685.2,-156.0
1690.45,-323.0
1695.68,-201.0
1700.89,-232.0
1706.1,-296.0
1711.28,-250.0
1716.45,-228.0
1721.6,-292.0
1726.74,-312.0
1731.87,-281.0
1736.97,-319.0
1742.07,-338.0
1747.14,-281.0
1752.2,-304.0
1757.25,-289.0
1762.28,-410.0
1767.29,-243.0
1772.29,-277.0
1777.28,-425.0
1782.25,-266.0
1787.2,-351.0
1792.14,-364.0
1797.06,-302.0
1801.96,-342.0
1806.85,-418.0
1811.73,-346.0
1816.59,-327.0
1821.43,-383.0
1826.26,-376.0
1831.07,-327.0
1835.87,-330.0
1840.65,-407.0
1845.42,-399.0
1850.17,-292.0
1854.9,-372.0
1859.62,-357.0
1864.33,-413.0
1869.02,-365.0
1873.69,-341.0
1878.35,-335.0
1882.99,-402.0
1887.62,-441.0
1892.23,-517.0
1893.38,-312.0