File: mAb_degraded_wasatch_plastic/70% Raw + 30% Graded Sample, 200mW, 2000ms_data.csv
Wavenumber,Intensities
282.29,1595.0
290.7,1462.0
299.09,1124.0
307.47,991.0
315.83,1151.0
324.18,1279.0
332.51,1188.0
340.83,1200.0
349.13,1075.0
357.42,1010.0
365.69,1029.0
373.95,1083.0
382.19,1508.0
390.42,1849.0
398.63,1898.0
406.83,2256.0
415.01,1917.0
423.18,1474.0
431.33,1291.0
439.47,1233.0
447.59,953.0
455.7,752.0
463.79,668.0
471.86,763.0
479.93,611.0
487.97,562.0
496.0,517.0
504.02,604.0
512.02,547.0
520.01,722.0
527.98,775.0
535.93,1086.0
543.87,1215.0
551.8,1051.0
559.71,959.0
567.6,1010.0
575.48,847.0
583.34,771.0
591.19,668.0
599.03,634.0
606.84,753.0
614.65,2386.0
622.43,6984.0
630.21,1553.0
637.96,596.0
645.71,391.0
653.43,293.0
661.14,193.0
668.84,254.0
676.52,222.0
684.19,369.0
691.83,319.0
699.47,431.0
707.09,236.0
714.69,315.0
722.28,361.0
729.85,554.0
737.41,1300.0
744.95,1932.0
752.48,2477.0
759.99,2787.0
767.49,2457.0
774.97,2236.0
782.44,2806.0
789.89,4518.0
797.32,5471.0
804.74,3155.0
812.14,2003.0
819.53,1064.0
826.9,903.0
834.26,1143.0
841.6,1595.0
848.93,1181.0
856.24,1010.0
863.54,984.0
870.82,923.0
878.08,854.0
885.33,896.0
892.57,970.0
899.79,1141.0
906.99,1526.0
914.18,576.0
921.35,779.0
928.51,566.0
935.65,702.0
942.77,740.0
949.88,695.0
956.98,793.0
964.06,1185.0
971.12,1120.0
978.17,1815.0
985.2,3421.0
992.22,8076.0
999.22,39142.0
1006.21,22090.0
1013.18,3801.0
1020.13,2977.0
1027.07,9041.0
1034.0,11072.0
1040.91,4260.0
1047.8,2308.0
1054.68,1792.0
1061.54,1978.0
1068.39,2278.0
1075.22,2210.0
1082.04,1921.0
1088.84,1815.0
1095.62,1918.0
1102.39,1603.0
1109.15,1063.0
1115.88,680.0
1122.61,420.0
1129.31,315.0
1136.01,558.0
1142.68,1120.0
1149.34,2726.0
1155.99,5245.0
1162.62,2878.0
1169.23,2354.0
1175.83,4112.0
1182.41,7305.0
1188.98,5847.0
1195.53,6481.0
1202.07,6359.0
1208.59,4366.0
1215.1,2521.0
1221.59,1805.0
1228.06,1405.0
1234.52,930.0
1240.96,828.0
1247.39,782.0
1253.8,706.0
1260.2,668.0
1266.58,727.0
1272.95,664.0
1279.3,720.0
1285.63,828.0
1291.95,911.0
1298.25,1135.0
1304.54,1340.0
1310.81,1283.0
1317.07,1705.0
1323.31,2022.0
1329.54,2142.0
1335.75,1663.0
1341.94,1211.0
1348.12,942.0
1354.29,818.0
1360.43,827.0
1366.57,744.0
1372.68,729.0
1378.78,494.0
1384.87,182.0
1390.94,84.0
1397.0,-23.0
1403.04,-95.0
1409.06,-7.0
1415.07,74.0
1421.06,-23.0
1427.04,11.0
1433.0,270.0
1438.94,945.0
1444.88,1690.0
1450.79,2138.0
1456.69,1264.0
1462.57,228.0
1468.44,53.0
1474.3,-91.0
1480.13,-41.0
1485.95,-65.0
1491.76,65.0
1497.55,6.0
1503.33,-64.0
1509.09,-121.0
1514.83,-144.0
1520.56,-117.0
1526.27,-224.0
1531.97,-160.0
1537.65,-171.0
1543.32,-224.0
1548.97,-95.0
1554.61,-57.0
1560.22,-34.0
1565.83,144.0
1571.42,246.0
1576.99,938.0
1582.55,2804.0
1588.09,1916.0
1593.62,1951.0
1599.13,4898.0
1604.63,6031.0
1610.11,2198.0
1615.57,707.0
1621.02,350.0
1626.45,174.0
1631.87,60.0
1637.27,-137.0
1642.66,-133.0
1648.03,-142.0
1653.39,-245.0
1658.73,-183.0
1664.05,-194.0
1669.36,-136.0
1674.66,-182.0
1679.94,-216.0
1685.2,-190.0
1690.45,-334.0
1695.68,-236.0
1700.89,-236.0
1706.1,-296.0
1711.28,-303.0
1716.45,-240.0
1721.6,-292.0
1726.74,-331.0
1731.87,-300.0
1736.97,-369.0
1742.07,-349.0
1747.14,-299.0
1752.2,-302.0
1757.25,-323.0
1762.28,-467.0
1767.29,-278.0
1772.29,-307.0
1777.28,-456.0
1782.25,-312.0
1787.2,-378.0
1792.14,-381.0
1797.06,-325.0
1801.96,-376.0
1806.85,-437.0
1811.73,-365.0
1816.59,-346.0
1821.43,-410.0
1826.26,-383.0
1831.07,-369.0
1835.87,-327.0
1840.65,-445.0
1845.42,-418.0
1850.17,-311.0
1854.9,-406.0
1859.62,-410.0
1864.33,-429.0
1869.02,-387.0
1873.69,-376.0
1878.35,-342.0
1882.99,-429.0
1887.62,-433.0
1892.23,-532.0
1893.38,-353.0