File: mAb_degraded_wasatch_plastic/80% Raw + 20% Graded Sample, 200mW, 3000 ms_data.csv
Wavenumber,Intensities
282.29,1762.0
290.7,1530.0
299.09,1287.0
307.47,1227.0
315.83,1352.0
324.18,1401.0
332.51,1378.0
340.83,1352.0
349.13,1249.0
357.42,1226.0
365.69,1219.0
373.95,1318.0
382.19,1641.0
390.42,1880.0
398.63,1932.0
406.83,2362.0
415.01,2008.0
423.18,1625.0
431.33,1477.0
439.47,1401.0
447.59,1184.0
455.7,1059.0
463.79,917.0
471.86,934.0
479.93,854.0
487.97,831.0
496.0,764.0
504.02,786.0
512.02,756.0
520.01,878.0
527.98,896.0
535.93,1223.0
543.87,1249.0
551.8,1154.0
559.71,1054.0
567.6,1075.0
575.48,976.0
583.34,915.0
591.19,786.0
599.03,793.0
606.84,856.0
614.65,2202.0
622.43,5984.0
630.21,1500.0
637.96,767.0
645.71,581.0
653.43,486.0
661.14,413.0
668.84,440.0
676.52,437.0
684.19,494.0
691.83,508.0
699.47,600.0
707.09,475.0
714.69,474.0
722.28,490.0
729.85,751.0
737.41,1334.0
744.95,1868.0
752.48,2329.0
759.99,2594.0
767.49,2385.0
774.97,2138.0
782.44,2616.0
789.89,4070.0
797.32,4982.0
804.74,2931.0
812.14,1913.0
819.53,1139.0
826.9,930.0
834.26,1154.0
841.6,1519.0
848.93,1192.0
856.24,1074.0
863.54,1045.0
870.82,980.0
878.08,923.0
885.33,919.0
892.57,979.0
899.79,1187.0
906.99,1439.0
914.18,726.0
921.35,813.0
928.51,645.0
935.65,732.0
942.77,778.0
949.88,748.0
956.98,850.0
964.06,1139.0
971.12,1066.0
978.17,1685.0
985.2,3090.0
992.22,7268.0
999.22,34574.0
1006.21,19512.0
1013.18,3448.0
1020.13,2761.0
1027.07,7978.0
1034.0,9861.0
1040.91,3903.0
1047.8,2092.0
1054.68,1708.0
1061.54,1758.0
1068.39,2077.0
1075.22,2032.0
1082.04,1754.0
1088.84,1701.0
1095.62,1747.0
1102.39,1474.0
1109.15,991.0
1115.88,748.0
1122.61,500.0
1129.31,417.0
1136.01,600.0
1142.68,1071.0
1149.34,2449.0
1155.99,4537.0
1162.62,2559.0
1169.23,2138.0
1175.83,3614.0
1182.41,6329.0
1188.98,5220.0
1195.53,5737.0
1202.07,5634.0
1208.59,3846.0
1215.1,2343.0
1221.59,1684.0
1228.06,1371.0
1234.52,1003.0
1240.96,874.0
1247.39,832.0
1253.8,797.0
1260.2,710.0
1266.58,738.0
1272.95,676.0
1279.3,781.0
1285.63,782.0
1291.95,866.0
1298.25,1074.0
1304.54,1242.0
1310.81,1226.0
1317.07,1519.0
1323.31,1775.0
1329.54,1887.0
1335.75,1507.0
1341.94,1109.0
1348.12,900.0
1354.29,874.0
1360.43,789.0
1366.57,744.0
1372.68,751.0
1378.78,549.0
1384.87,277.0
1390.94,205.0
1397.0,125.0
1403.04,72.0
1409.06,99.0
1415.07,163.0
1421.06,87.0
1427.04,144.0
1433.0,414.0
1438.94,896.0
1444.88,1511.0
1450.79,1872.0
1456.69,1142.0
1462.57,304.0
1468.44,167.0
1474.3,42.0
1480.13,72.0
1485.95,38.0
1491.76,183.0
1497.55,95.0
1503.33,34.0
1509.09,4.0
1514.83,27.0
1520.56,12.0
1526.27,-57.0
1531.97,19.0
1537.65,-7.0
1543.32,-23.0
1548.97,38.0
1554.61,99.0
1560.22,107.0
1565.83,220.0
1571.42,368.0
1576.99,869.0
1582.55,2458.0
1588.09,1684.0
1593.62,1701.0
1599.13,4144.0
1604.63,5057.0
1610.11,1997.0
1615.57,741.0
1621.02,391.0
1626.45,262.0
1631.87,193.0
1637.27,61.0
1642.66,76.0
1648.03,42.0
1653.39,-30.0
1658.73,30.0
1664.05,4.0
1669.36,31.0
1674.66,19.0
1679.94,-45.0
1685.2,-31.0
1690.45,-137.0
1695.68,-49.0
1700.89,-103.0
1706.1,-136.0
1711.28,-129.0
1716.45,-118.0
1721.6,-125.0
1726.74,-156.0
1731.87,-159.0
1736.97,-198.0
1742.07,-194.0
1747.14,-148.0
1752.2,-156.0
1757.25,-171.0
1762.28,-243.0
1767.29,-141.0
1772.29,-174.0
1777.28,-254.0
1782.25,-133.0
1787.2,-195.0
1792.14,-237.0
1797.06,-165.0
1801.96,-209.0
1806.85,-270.0
1811.73,-190.0
1816.59,-202.0
1821.43,-235.0
1826.26,-205.0
1831.07,-194.0
1835.87,-198.0
1840.65,-221.0
1845.42,-270.0
1850.17,-167.0
1854.9,-209.0
1859.62,-239.0
1864.33,-250.0
1869.02,-220.0
1873.69,-205.0
1878.35,-187.0
1882.99,-246.0
1887.62,-266.0
1892.23,-319.0
1893.38,-201.0