File: mAb_degraded_wasatch_plastic/90% Raw + 10% Graded Sample, 200mW_data.csv
Wavenumber,Intensities
282.29,3402.0
290.7,3091.0
299.09,2741.0
307.47,2586.0
315.83,2719.0
324.18,2737.0
332.51,2802.0
340.83,2707.0
349.13,2593.0
357.42,2532.0
365.69,2601.0
373.95,2848.0
382.19,3182.0
390.42,3535.0
398.63,3812.0
406.83,4333.0
415.01,3760.0
423.18,3315.0
431.33,2954.0
439.47,2817.0
447.59,2604.0
455.7,2373.0
463.79,2213.0
471.86,2088.0
479.93,1997.0
487.97,2054.0
496.0,2009.0
504.02,1925.0
512.02,1929.0
520.01,1994.0
527.98,2077.0
535.93,2495.0
543.87,2616.0
551.8,2464.0
559.71,2329.0
567.6,2275.0
575.48,2081.0
583.34,1918.0
591.19,1913.0
599.03,1936.0
606.84,2078.0
614.65,4091.0
622.43,10119.0
630.21,2958.0
637.96,1860.0
645.71,1523.0
653.43,1424.0
661.14,1328.0
668.84,1321.0
676.52,1272.0
684.19,1287.0
691.83,1306.0
699.47,1580.0
707.09,1568.0
714.69,1340.0
722.28,1417.0
729.85,1746.0
737.41,2758.0
744.95,3417.0
752.48,4156.0
759.99,4682.0
767.49,4374.0
774.97,3850.0
782.44,4610.0
789.89,7157.0
797.32,8315.0
804.74,5331.0
812.14,3573.0
819.53,2404.0
826.9,2065.0
834.26,2422.0
841.6,2950.0
848.93,2497.0
856.24,2304.0
863.54,2168.0
870.82,2149.0
878.08,2020.0
885.33,2016.0
892.57,2122.0
899.79,2569.0
906.99,2745.0
914.18,2153.0
921.35,1758.0
928.51,1610.0
935.65,1674.0
942.77,1771.0
949.88,1755.0
956.98,1940.0
964.06,2305.0
971.12,2354.0
978.17,3094.0
985.2,5467.0
992.22,11797.0
999.22,54174.0
1006.21,31009.0
1013.18,5939.0
1020.13,4891.0
1027.07,13176.0
1034.0,16118.0
1040.91,6766.0
1047.8,3865.0
1054.68,3259.0
1061.54,3334.0
1068.39,3843.0
1075.22,3691.0
1082.04,3288.0
1088.84,3258.0
1095.62,3273.0
1102.39,2960.0
1109.15,2156.0
1115.88,1792.0
1122.61,1377.0
1129.31,1298.0
1136.01,1435.0
1142.68,2229.0
1149.34,4472.0
1155.99,7878.0
1162.62,4617.0
1169.23,3938.0
1175.83,6223.0
1182.41,10373.0
1188.98,8776.0
1195.53,9458.0
1202.07,9389.0
1208.59,6683.0
1215.1,4192.0
1221.59,3259.0
1228.06,2670.0
1234.52,2195.0
1240.96,1975.0
1247.39,1963.0
1253.8,1839.0
1260.2,1739.0
1266.58,1691.0
1272.95,1708.0
1279.3,1730.0
1285.63,1754.0
1291.95,1948.0
1298.25,2251.0
1304.54,2434.0
1310.81,2589.0
1317.07,3038.0
1323.31,3457.0
1329.54,3527.0
1335.75,3034.0
1341.94,2388.0
1348.12,1955.0
1354.29,1895.0
1360.43,1792.0
1366.57,1818.0
1372.68,1716.0
1378.78,1428.0
1384.87,1048.0
1390.94,874.0
1397.0,817.0
1403.04,809.0
1409.06,775.0
1415.07,725.0
1421.06,790.0
1427.04,805.0
1433.0,1177.0
1438.94,2018.0
1444.88,2905.0
1450.79,3478.0
1456.69,2300.0
1462.57,1120.0
1468.44,794.0
1474.3,676.0
1480.13,680.0
1485.95,630.0
1491.76,828.0
1497.55,722.0
1503.33,574.0
1509.09,532.0
1514.83,573.0
1520.56,551.0
1526.27,580.0
1531.97,577.0
1537.65,604.0
1543.32,592.0
1548.97,668.0
1554.61,691.0
1560.22,673.0
1565.83,861.0
1571.42,1139.0
1576.99,2039.0
1582.55,4505.0
1588.09,3165.0
1593.62,3254.0
1599.13,7153.0
1604.63,8577.0
1610.11,3744.0
1615.57,1743.0
1621.02,1193.0
1626.45,932.0
1631.87,823.0
1637.27,710.0
1642.66,721.0
1648.03,631.0
1653.39,604.0
1658.73,552.0
1664.05,588.0
1669.36,570.0
1674.66,566.0
1679.94,524.0
1685.2,493.0
1690.45,490.0
1695.68,429.0
1700.89,429.0
1706.1,380.0
1711.28,354.0
1716.45,318.0
1721.6,319.0
1726.74,334.0
1731.87,315.0
1736.97,277.0
1742.07,289.0
1747.14,319.0
1752.2,296.0
1757.25,258.0
1762.28,277.0
1767.29,284.0
1772.29,247.0
1777.28,232.0
1782.25,250.0
1787.2,234.0
1792.14,245.0
1797.06,233.0
1801.96,247.0
1806.85,258.0
1811.73,250.0
1816.59,216.0
1821.43,258.0
1826.26,243.0
1831.07,243.0
1835.87,205.0
1840.65,231.0
1845.42,197.0
1850.17,236.0
1854.9,213.0
1859.62,194.0
1864.33,224.0
1869.02,156.0
1873.69,179.0
1878.35,174.0
1882.99,190.0
1887.62,167.0
1892.23,190.0
1893.38,155.0